Timestamp,F3 Value,F3 Quality,FC5 Value,FC5 Quality,F7 Value,F7 Quality,T7 Value,T7 Quality,P7 Value,P7 Quality,O1 Value,O1 Quality,O2 Value,O2 Quality,P8 Value,P8 Quality,T8 Value,T8 Quality,F8 Value,F8 Quality,AF4 Value,AF4 Quality,FC6 Value,FC6 Quality,F4 Value,F4 Quality,AF3 Value,AF3 Quality,X Value,Y Value,Z Value
2017-11-11 16:24:21.924130,4080.0,0,4073.22580645,0,4196.12903226,0,4076.4516129,0,4060.32258065,0,4078.06451613,0,3744.83870968,0,4093.22580645,0,4091.61290323,0,4082.90322581,0,4325.16129032,0,4114.51612903,0,4842.25806452,0,4079.35483871,0,0,0,?
2017-11-11 16:24:21.924171,4088.70967742,0,4100.32258065,0,4208.38709677,0,4084.19354839,0,4102.25806452,0,4068.38709677,0,3750.32258065,0,4093.22580645,0,4109.67741935,0,4066.4516129,0,4330.96774194,0,4122.90322581,0,4818.06451613,0,4111.93548387,0,0,0,?
2017-11-11 16:24:21.924182,4097.09677419,0,4096.77419355,0,4207.09677419,0,4084.51612903,0,4103.5483871,0,4068.06451613,0,3747.74193548,0,4094.51612903,0,4109.03225806,0,4069.35483871,0,4338.38709677,0,4123.5483871,0,4820.64516129,0,4112.25806452,0,0,0,?
2017-11-11 16:24:21.924234,4105.48387097,0,4086.12903226,0,4190.96774194,0,4097.09677419,0,4091.93548387,0,4093.22580645,0,3772.25806452,0,4098.70967742,0,4110.96774194,0,4107.09677419,0,4368.06451613,0,4131.29032258,0,4854.51612903,0,4089.35483871,0,0,0,?
2017-11-11 16:24:21.924313,4105.48387097,0,4086.12903226,0,4190.96774194,0,4097.09677419,0,4091.93548387,0,4093.22580645,0,3772.25806452,0,4098.70967742,0,4110.96774194,0,4107.09677419,0,4368.06451613,0,4131.29032258,0,4854.51612903,0,4089.35483871,0,0,0,?
2017-11-11 16:24:21.924472,4066.4516129,0,4097.74193548,0,4196.77419355,0,4095.48387097,0,4089.03225806,0,4096.12903226,0,3757.74193548,0,4098.70967742,0,4111.93548387,0,4101.93548387,0,4364.51612903,0,4137.41935484,0,4809.03225806,0,4088.70967742,0,0,0,?
2017-11-11 16:24:21.924506,4066.12903226,0,4107.41935484,0,4198.06451613,0,4088.38709677,0,4085.48387097,0,4090.64516129,0,3745.16129032,0,4099.67741935,0,4110.96774194,0,4095.16129032,0,4366.4516129,0,4138.06451613,0,4818.38709677,0,4089.67741935,0,0,0,?
2017-11-11 16:24:21.924612,4095.16129032,0,4102.58064516,0,4183.22580645,0,4083.87096774,0,4081.29032258,0,4085.48387097,0,3765.48387097,0,4103.5483871,0,4108.38709677,0,4083.87096774,0,4360.32258065,0,4130.0,0,4817.09677419,0,4082.58064516,0,0,0,?
2017-11-11 16:24:21.924632,4071.93548387,0,4090.32258065,0,4165.16129032,0,4085.48387097,0,4081.61290323,0,4083.22580645,0,3755.80645161,0,4106.12903226,0,4107.41935484,0,4077.09677419,0,4353.87096774,0,4120.64516129,0,4808.70967742,0,4073.22580645,0,0,0,?
2017-11-11 16:24:21.924737,4076.12903226,0,4079.03225806,0,4166.4516129,0,4092.90322581,0,4092.90322581,0,4090.0,0,3785.80645161,0,4095.80645161,0,4114.19354839,0,4094.19354839,0,4369.03225806,0,4121.93548387,0,4810.0,0,4069.03225806,0,0,0,?
2017-11-11 16:24:21.924837,4076.12903226,0,4079.03225806,0,4166.4516129,0,4092.90322581,0,4092.90322581,0,4090.0,0,3785.80645161,0,4095.80645161,0,4114.19354839,0,4094.19354839,0,4369.03225806,0,4121.93548387,0,4810.0,0,4069.03225806,0,0,0,?
2017-11-11 16:24:21.924897,4080.64516129,0,4073.5483871,0,4166.4516129,0,4098.70967742,0,4090.64516129,0,4104.19354839,0,3783.5483871,0,4090.0,0,4066.12903226,0,4091.29032258,0,4354.51612903,0,4121.61290323,0,4807.09677419,0,4061.93548387,0,0,0,?
2017-11-11 16:24:21.924975,4078.06451613,0,4069.67741935,0,4162.90322581,0,4102.58064516,0,4085.48387097,0,4112.58064516,0,3777.41935484,0,4089.67741935,0,4066.12903226,0,4079.67741935,0,4326.77419355,0,4119.67741935,0,4850.96774194,0,4056.77419355,0,0,0,?
2017-11-11 16:24:21.925072,4075.48387097,0,4073.5483871,0,4167.74193548,0,4096.12903226,0,4081.61290323,0,4097.09677419,0,3756.4516129,0,4094.51612903,0,4065.16129032,0,4080.32258065,0,4323.22580645,0,4124.83870968,0,4855.48387097,0,4065.16129032,0,0,0,?
2017-11-11 16:24:21.925087,4072.58064516,0,4079.35483871,0,4177.09677419,0,4082.25806452,0,4080.64516129,0,4067.41935484,0,3782.25806452,0,4100.32258065,0,4064.83870968,0,4094.83870968,0,4352.90322581,0,4134.51612903,0,4818.70967742,0,4081.29032258,0,0,0,?
2017-11-11 16:24:21.925128,4068.06451613,0,4082.90322581,0,4177.41935484,0,4078.06451613,0,4085.16129032,0,4058.70967742,0,3781.93548387,0,4101.61290323,0,4064.51612903,0,4097.74193548,0,4334.51612903,0,4133.87096774,0,4821.61290323,0,4086.77419355,0,0,0,?
2017-11-11 16:24:21.925203,4073.5483871,0,4090.0,0,4172.25806452,0,4090.0,0,4098.06451613,0,4083.22580645,0,3752.58064516,0,4094.51612903,0,4114.51612903,0,4078.70967742,0,4343.5483871,0,4118.70967742,0,4808.70967742,0,4081.29032258,0,0,0,?
2017-11-11 16:24:21.925267,4064.51612903,0,4105.48387097,0,4197.74193548,0,4087.41935484,0,4103.5483871,0,4086.4516129,0,3784.83870968,0,4086.12903226,0,4066.12903226,0,4094.19354839,0,4345.16129032,0,4121.93548387,0,4811.29032258,0,4100.64516129,0,0,0,?
2017-11-11 16:24:21.925280,4064.51612903,0,4105.48387097,0,4197.74193548,0,4087.41935484,0,4103.5483871,0,4086.4516129,0,3784.83870968,0,4086.12903226,0,4066.12903226,0,4094.19354839,0,4345.16129032,0,4121.93548387,0,4811.29032258,0,4100.64516129,0,0,0,?
2017-11-11 16:24:21.925387,4106.4516129,0,4087.74193548,0,4209.35483871,0,4058.06451613,0,4077.41935484,0,4034.83870968,0,3753.22580645,0,4101.29032258,0,4068.06451613,0,4092.25806452,0,4350.96774194,0,4148.06451613,0,4828.38709677,0,4066.77419355,0,0,0,?
2017-11-11 16:24:21.925399,4078.38709677,0,4063.87096774,0,4203.22580645,0,4038.38709677,0,4055.16129032,0,4046.12903226,0,3738.70967742,0,4068.70967742,0,4068.06451613,0,4119.67741935,0,4353.87096774,0,4163.5483871,0,4832.90322581,0,4068.06451613,0,0,0,?
2017-11-11 16:24:21.925489,4063.22580645,0,4060.64516129,0,4194.83870968,0,4043.22580645,0,4057.74193548,0,4046.12903226,0,3733.5483871,0,4074.51612903,0,4066.77419355,0,4109.35483871,0,4369.67741935,0,4160.64516129,0,4826.77419355,0,4110.96774194,0,0,0,?
2017-11-11 16:24:21.925542,4073.87096774,0,4079.67741935,0,4197.41935484,0,4062.25806452,0,4080.96774194,0,4075.80645161,0,3725.16129032,0,4065.80645161,0,4066.12903226,0,4078.06451613,0,4355.16129032,0,4147.74193548,0,4821.93548387,0,4105.16129032,0,0,0,?
2017-11-11 16:24:21.925584,4090.96774194,0,4099.67741935,0,4205.80645161,0,4082.58064516,0,4103.22580645,0,4067.41935484,0,3723.87096774,0,4102.58064516,0,4067.41935484,0,4093.87096774,0,4385.16129032,0,4131.29032258,0,4815.48387097,0,4099.03225806,0,0,0,?
2017-11-11 16:24:21.925670,4097.74193548,0,4106.77419355,0,4161.29032258,0,4098.70967742,0,4111.93548387,0,4108.70967742,0,3737.74193548,0,4090.96774194,0,4068.06451613,0,4063.5483871,0,4383.87096774,0,4114.19354839,0,4851.93548387,0,4089.03225806,0,0,0,?
2017-11-11 16:24:21.925777,4102.90322581,0,4100.64516129,0,4177.41935484,0,4094.51612903,0,4094.51612903,0,4113.5483871,0,3721.93548387,0,4087.41935484,0,4114.51612903,0,4072.25806452,0,4364.51612903,0,4114.83870968,0,4850.96774194,0,4089.03225806,0,0,0,?
2017-11-11 16:24:21.925794,4102.90322581,0,4100.64516129,0,4177.41935484,0,4094.51612903,0,4094.51612903,0,4113.5483871,0,3721.93548387,0,4087.41935484,0,4114.51612903,0,4072.25806452,0,4364.51612903,0,4114.83870968,0,4850.96774194,0,4089.03225806,0,0,0,?
2017-11-11 16:24:21.925887,4098.70967742,0,4089.03225806,0,4174.51612903,0,4076.12903226,0,4076.4516129,0,4078.06451613,0,3740.96774194,0,4098.38709677,0,4113.87096774,0,4109.03225806,0,4378.70967742,0,4135.48387097,0,4819.03225806,0,4096.77419355,0,0,0,?
2017-11-11 16:24:21.925903,4086.77419355,0,4077.09677419,0,4202.58064516,0,4070.96774194,0,4068.06451613,0,4065.80645161,0,3734.83870968,0,4109.67741935,0,4113.87096774,0,4070.96774194,0,4379.03225806,0,4144.83870968,0,4823.5483871,0,4091.93548387,0,0,0,?
2017-11-11 16:24:21.925971,4084.83870968,0,4080.32258065,0,4179.67741935,0,4086.77419355,0,4080.64516129,0,4091.29032258,0,3752.58064516,0,4109.67741935,0,4113.22580645,0,4096.4516129,0,4360.32258065,0,4135.16129032,0,4810.32258065,0,4080.96774194,0,0,0,?
2017-11-11 16:24:21.926000,4098.06451613,0,4097.74193548,0,4179.35483871,0,4105.48387097,0,4100.64516129,0,4070.96774194,0,3713.22580645,0,4100.32258065,0,4112.25806452,0,4068.06451613,0,4396.4516129,0,4121.29032258,0,4850.0,0,4079.67741935,0,0,0,?
2017-11-11 16:24:21.926067,4107.41935484,0,4107.41935484,0,4195.16129032,0,4106.4516129,0,4104.83870968,0,4071.61290323,0,3709.67741935,0,4093.22580645,0,4112.90322581,0,4068.70967742,0,4398.70967742,0,4119.35483871,0,4851.29032258,0,4087.09677419,0,0,0,?
2017-11-11 16:24:21.926082,4096.4516129,0,4096.4516129,0,4203.5483871,0,4095.16129032,0,4089.03225806,0,4101.61290323,0,3712.58064516,0,4095.48387097,0,4064.83870968,0,4090.32258065,0,4401.61290323,0,4125.48387097,0,4853.5483871,0,4087.09677419,0,0,0,?
2017-11-11 16:24:21.926204,4080.64516129,0,4082.25806452,0,4197.74193548,0,4090.64516129,0,4073.87096774,0,4088.06451613,0,3726.77419355,0,4099.35483871,0,4065.48387097,0,4105.80645161,0,4395.80645161,0,4129.35483871,0,4850.0,0,4076.12903226,0,0,0,?
2017-11-11 16:24:21.926220,4083.22580645,0,4086.12903226,0,4193.22580645,0,4095.80645161,0,4076.4516129,0,4087.74193548,0,3730.0,0,4097.74193548,0,4113.22580645,0,4110.64516129,0,4395.80645161,0,4131.29032258,0,4851.61290323,0,4068.38709677,0,0,0,?
2017-11-11 16:24:21.926536,4098.06451613,0,4101.93548387,0,4195.16129032,0,4098.70967742,0,4088.38709677,0,4086.77419355,0,3714.83870968,0,4094.19354839,0,4109.35483871,0,4114.19354839,0,4404.51612903,0,4135.16129032,0,4813.87096774,0,4072.58064516,0,0,0,?
2017-11-11 16:24:21.926618,4100.96774194,0,4108.70967742,0,4194.83870968,0,4093.5483871,0,4094.19354839,0,4080.32258065,0,3754.83870968,0,4095.80645161,0,4107.74193548,0,4064.83870968,0,4403.5483871,0,4138.06451613,0,4823.5483871,0,4080.64516129,0,0,0,?
2017-11-11 16:24:21.926674,4088.06451613,0,4103.5483871,0,4190.64516129,0,4085.80645161,0,4092.25806452,0,4074.51612903,0,3714.19354839,0,4101.93548387,0,4108.06451613,0,4106.4516129,0,4384.51612903,0,4135.16129032,0,4820.64516129,0,4085.16129032,0,0,0,?
2017-11-11 16:24:21.926723,4080.96774194,0,4100.96774194,0,4195.16129032,0,4081.29032258,0,4091.93548387,0,4070.96774194,0,3728.70967742,0,4104.19354839,0,4107.41935484,0,4093.22580645,0,4371.29032258,0,4130.32258065,0,4813.87096774,0,4089.35483871,0,0,0,?
2017-11-11 16:24:21.926752,4086.77419355,0,4105.48387097,0,4207.41935484,0,4080.0,0,4094.19354839,0,4068.38709677,0,3735.48387097,0,4100.0,0,4105.48387097,0,4086.4516129,0,4381.29032258,0,4130.0,0,4812.58064516,0,4093.87096774,0,0,0,?
2017-11-11 16:24:21.926779,4089.67741935,0,4105.80645161,0,4210.32258065,0,4082.25806452,0,4092.90322581,0,4069.67741935,0,3745.48387097,0,4094.83870968,0,4102.90322581,0,4085.80645161,0,4398.70967742,0,4131.93548387,0,4809.35483871,0,4091.29032258,0,0,0,?
2017-11-11 16:24:21.926891,4079.67741935,0,4096.77419355,0,4196.12903226,0,4088.06451613,0,4087.74193548,0,4078.06451613,0,3764.19354839,0,4092.58064516,0,4102.25806452,0,4084.51612903,0,4401.61290323,0,4131.29032258,0,4848.38709677,0,4080.96774194,0,0,0,?
2017-11-11 16:24:21.926968,4071.93548387,0,4090.32258065,0,4183.5483871,0,4092.90322581,0,4084.51612903,0,4086.12903226,0,3769.03225806,0,4092.25806452,0,4104.51612903,0,4084.83870968,0,4397.41935484,0,4128.70967742,0,4839.03225806,0,4075.80645161,0,0,0,?
2017-11-11 16:24:21.927009,4077.09677419,0,4093.5483871,0,4187.74193548,0,4091.29032258,0,4084.19354839,0,4085.48387097,0,3743.87096774,0,4091.29032258,0,4109.35483871,0,4090.96774194,0,4355.48387097,0,4127.09677419,0,4843.22580645,0,4082.90322581,0,0,0,?
2017-11-11 16:24:21.927021,4084.19354839,0,4096.12903226,0,4198.06451613,0,4085.48387097,0,4081.93548387,0,4080.0,0,3712.25806452,0,4090.64516129,0,4065.16129032,0,4095.48387097,0,4369.67741935,0,4123.22580645,0,4851.29032258,0,4091.29032258,0,0,0,?
2017-11-11 16:24:21.927116,4081.93548387,0,4088.70967742,0,4196.77419355,0,4083.22580645,0,4078.06451613,0,4079.67741935,0,3758.38709677,0,4092.58064516,0,4069.03225806,0,4090.0,0,4370.64516129,0,4114.51612903,0,4848.38709677,0,4088.70967742,0,0,0,?
2017-11-11 16:24:21.927157,4077.74193548,0,4080.64516129,0,4187.74193548,0,4086.4516129,0,4080.96774194,0,4082.90322581,0,3725.48387097,0,4094.83870968,0,4068.70967742,0,4081.29032258,0,4362.58064516,0,4106.77419355,0,4837.74193548,0,4081.29032258,0,0,0,?
2017-11-11 16:24:21.927278,4090.96774194,0,4091.29032258,0,4185.80645161,0,4090.96774194,0,4101.61290323,0,4081.61290323,0,3733.5483871,0,4096.4516129,0,4065.16129032,0,4095.16129032,0,4372.90322581,0,4115.80645161,0,4838.06451613,0,4086.12903226,0,0,0,?
2017-11-11 16:24:21.927316,4090.96774194,0,4091.29032258,0,4185.80645161,0,4090.96774194,0,4101.61290323,0,4081.61290323,0,3733.5483871,0,4096.4516129,0,4065.16129032,0,4095.16129032,0,4372.90322581,0,4115.80645161,0,4838.06451613,0,4086.12903226,0,0,0,?
2017-11-11 16:24:21.927397,4087.74193548,0,4091.93548387,0,4186.4516129,0,4090.64516129,0,4100.32258065,0,4086.12903226,0,3733.87096774,0,4099.35483871,0,4066.4516129,0,4101.93548387,0,4369.67741935,0,4120.96774194,0,4837.74193548,0,4086.4516129,0,0,0,?
2017-11-11 16:24:21.927416,4081.61290323,0,4087.41935484,0,4191.29032258,0,4089.67741935,0,4090.64516129,0,4092.90322581,0,3734.83870968,0,4102.90322581,0,4067.41935484,0,4101.29032258,0,4357.74193548,0,4122.25806452,0,4835.16129032,0,4084.19354839,0,0,0,?
2017-11-11 16:24:21.927451,4089.35483871,0,4088.06451613,0,4209.67741935,0,4086.12903226,0,4080.64516129,0,4091.93548387,0,3717.41935484,0,4103.5483871,0,4065.48387097,0,4102.90322581,0,4363.22580645,0,4127.41935484,0,4844.83870968,0,4089.03225806,0,0,0,?
2017-11-11 16:24:21.927466,4106.12903226,0,4094.19354839,0,4180.96774194,0,4081.93548387,0,4075.16129032,0,4083.5483871,0,3736.77419355,0,4101.29032258,0,4110.0,0,4108.06451613,0,4389.03225806,0,4136.4516129,0,4813.87096774,0,4098.70967742,0,0,0,?
2017-11-11 16:24:21.927497,4112.90322581,0,4096.77419355,0,4184.19354839,0,4081.61290323,0,4074.51612903,0,4080.0,0,3722.25806452,0,4098.38709677,0,4102.58064516,0,4109.35483871,0,4405.16129032,0,4141.29032258,0,4823.5483871,0,4102.90322581,0,0,0,?
2017-11-11 16:24:21.927516,4105.80645161,0,4095.80645161,0,4169.35483871,0,4085.16129032,0,4080.32258065,0,4084.83870968,0,3732.25806452,0,4096.77419355,0,4099.35483871,0,4106.12903226,0,4393.87096774,0,4139.03225806,0,4816.4516129,0,4101.29032258,0,0,0,?
2017-11-11 16:24:21.927621,4101.29032258,0,4101.29032258,0,4208.38709677,0,4087.09677419,0,4091.61290323,0,4087.41935484,0,3743.22580645,0,4095.16129032,0,4102.90322581,0,4109.03225806,0,4372.90322581,0,4137.74193548,0,4809.35483871,0,4104.83870968,0,0,0,?
2017-11-11 16:24:21.927713,4103.87096774,0,4110.96774194,0,4210.32258065,0,4084.51612903,0,4099.67741935,0,4081.29032258,0,3741.93548387,0,4093.87096774,0,4111.29032258,0,4069.03225806,0,4362.58064516,0,4140.96774194,0,4812.90322581,0,4112.58064516,0,0,0,?
2017-11-11 16:24:21.927784,4101.61290323,0,4113.22580645,0,4162.90322581,0,4083.87096774,0,4096.12903226,0,4074.51612903,0,3748.06451613,0,4096.4516129,0,4068.06451613,0,4072.58064516,0,4355.80645161,0,4142.58064516,0,4817.74193548,0,4110.64516129,0,0,0,?
2017-11-11 16:24:21.927822,4090.64516129,0,4104.51612903,0,4208.70967742,0,4089.03225806,0,4083.87096774,0,4074.51612903,0,3722.25806452,0,4102.90322581,0,4070.0,0,4112.58064516,0,4391.61290323,0,4138.06451613,0,4813.22580645,0,4094.19354839,0,0,0,?
2017-11-11 16:24:21.927946,4085.16129032,0,4096.77419355,0,4206.77419355,0,4095.48387097,0,4074.19354839,0,4077.41935484,0,3742.25806452,0,4108.70967742,0,4066.77419355,0,4100.32258065,0,4379.35483871,0,4131.93548387,0,4807.74193548,0,4077.41935484,0,0,0,?
2017-11-11 16:24:21.928060,4091.29032258,0,4096.77419355,0,4162.25806452,0,4097.09677419,0,4072.25806452,0,4078.38709677,0,3737.41935484,0,4109.03225806,0,4112.90322581,0,4097.41935484,0,4381.61290323,0,4129.35483871,0,4810.32258065,0,4071.93548387,0,0,0,?
2017-11-11 16:24:21.928126,4093.5483871,0,4096.77419355,0,4161.29032258,0,4094.51612903,0,4075.48387097,0,4081.61290323,0,3724.83870968,0,4104.83870968,0,4110.0,0,4098.06451613,0,4385.16129032,0,4126.77419355,0,4813.5483871,0,4072.25806452,0,0,0,?
2017-11-11 16:24:21.928219,4081.29032258,0,4091.29032258,0,4194.83870968,0,4093.87096774,0,4081.61290323,0,4089.67741935,0,3731.29032258,0,4099.35483871,0,4109.03225806,0,4092.90322581,0,4375.16129032,0,4120.96774194,0,4807.09677419,0,4070.32258065,0,0,0,?
2017-11-11 16:24:21.928257,4068.06451613,0,4086.77419355,0,4176.4516129,0,4095.16129032,0,4089.67741935,0,4093.87096774,0,3750.0,0,4094.19354839,0,4109.03225806,0,4087.41935484,0,4364.83870968,0,4116.77419355,0,4849.35483871,0,4070.96774194,0,0,0,?
2017-11-11 16:24:21.928339,4069.35483871,0,4089.03225806,0,4175.48387097,0,4095.16129032,0,4096.4516129,0,4086.77419355,0,3759.03225806,0,4090.32258065,0,4109.35483871,0,4089.35483871,0,4374.19354839,0,4120.64516129,0,4853.22580645,0,4078.70967742,0,0,0,?
2017-11-11 16:24:21.928381,4078.38709677,0,4090.32258065,0,4185.48387097,0,4095.16129032,0,4095.80645161,0,4077.74193548,0,3759.67741935,0,4089.03225806,0,4110.32258065,0,4090.64516129,0,4392.25806452,0,4126.77419355,0,4811.29032258,0,4083.87096774,0,0,0,?
2017-11-11 16:24:21.928400,4079.35483871,0,4082.90322581,0,4189.35483871,0,4098.06451613,0,4087.41935484,0,4080.0,0,3766.4516129,0,4090.96774194,0,4112.58064516,0,4079.67741935,0,4389.03225806,0,4126.12903226,0,4806.4516129,0,4075.80645161,0,0,0,?
2017-11-11 16:24:21.928446,4075.16129032,0,4074.83870968,0,4186.77419355,0,4100.64516129,0,4080.0,0,4091.29032258,0,3770.32258065,0,4093.5483871,0,4065.16129032,0,4061.61290323,0,4366.4516129,0,4120.0,0,4842.58064516,0,4062.58064516,0,0,0,?
2017-11-11 16:24:21.928458,4078.38709677,0,4078.38709677,0,4188.70967742,0,4097.41935484,0,4080.96774194,0,4097.74193548,0,3749.35483871,0,4093.22580645,0,4066.4516129,0,4054.51612903,0,4360.0,0,4117.41935484,0,4838.70967742,0,4060.32258065,0,0,0,?
2017-11-11 16:24:21.928483,4085.48387097,0,4088.70967742,0,4193.22580645,0,4091.61290323,0,4087.74193548,0,4095.80645161,0,3714.19354839,0,4091.93548387,0,4065.48387097,0,4061.93548387,0,4385.48387097,0,4120.96774194,0,4849.35483871,0,4069.03225806,0,0,0,?
2017-11-11 16:24:21.928497,4084.83870968,0,4093.87096774,0,4189.03225806,0,4090.32258065,0,4093.22580645,0,4091.61290323,0,3751.29032258,0,4093.87096774,0,4113.5483871,0,4073.22580645,0,4372.58064516,0,4124.19354839,0,4809.67741935,0,4077.41935484,0,0,0,?
2017-11-11 16:24:21.928630,4079.67741935,0,4093.5483871,0,4183.22580645,0,4094.83870968,0,4095.80645161,0,4086.12903226,0,3718.70967742,0,4098.06451613,0,4112.90322581,0,4083.87096774,0,4400.0,0,4126.12903226,0,4811.93548387,0,4083.5483871,0,0,0,?
2017-11-11 16:24:21.928643,4086.77419355,0,4097.74193548,0,4192.25806452,0,4097.41935484,0,4098.06451613,0,4074.19354839,0,3737.41935484,0,4100.0,0,4064.83870968,0,4100.0,0,4417.09677419,0,4130.64516129,0,4814.19354839,0,4095.48387097,0,0,0,?
2017-11-11 16:24:21.928752,4103.87096774,0,4104.83870968,0,4165.48387097,0,4091.93548387,0,4098.38709677,0,4060.0,0,3734.83870968,0,4096.77419355,0,4068.38709677,0,4067.09677419,0,4422.25806452,0,4136.12903226,0,4820.32258065,0,4110.64516129,0,0,0,?
2017-11-11 16:24:21.928810,4109.67741935,0,4103.87096774,0,4180.96774194,0,4083.5483871,0,4093.5483871,0,4054.83870968,0,3720.96774194,0,4091.93548387,0,4070.32258065,0,4070.32258065,0,4406.77419355,0,4136.4516129,0,4818.70967742,0,4065.16129032,0,0,0,?
2017-11-11 16:24:21.928896,4097.41935484,0,4094.83870968,0,4178.06451613,0,4078.70967742,0,4087.09677419,0,4061.93548387,0,3709.67741935,0,4089.67741935,0,4070.0,0,4106.12903226,0,4378.06451613,0,4130.64516129,0,4856.4516129,0,4105.80645161,0,0,0,?
2017-11-11 16:24:21.928909,4086.4516129,0,4092.58064516,0,4169.03225806,0,4080.0,0,4087.74193548,0,4072.25806452,0,3745.80645161,0,4089.03225806,0,4068.38709677,0,4087.74193548,0,4366.77419355,0,4127.41935484,0,4847.41935484,0,4093.5483871,0,0,0,?
2017-11-11 16:24:21.928943,4089.67741935,0,4101.29032258,0,4164.19354839,0,4086.12903226,0,4096.4516129,0,4080.96774194,0,3730.64516129,0,4087.41935484,0,4066.77419355,0,4079.35483871,0,4384.83870968,0,4128.70967742,0,4850.96774194,0,4087.74193548,0,0,0,?
2017-11-11 16:24:21.928976,4095.80645161,0,4106.4516129,0,4208.70967742,0,4093.22580645,0,4101.29032258,0,4088.70967742,0,3735.80645161,0,4087.41935484,0,4065.48387097,0,4083.5483871,0,4402.90322581,0,4130.0,0,4806.4516129,0,4084.51612903,0,0,0,?
2017-11-11 16:24:21.929012,4090.96774194,0,4096.4516129,0,4199.35483871,0,4094.19354839,0,4093.22580645,0,4091.29032258,0,3715.48387097,0,4092.58064516,0,4065.80645161,0,4097.41935484,0,4392.25806452,0,4129.03225806,0,4853.87096774,0,4081.61290323,0,0,0,?
2017-11-11 16:24:21.929101,4086.4516129,0,4081.93548387,0,4199.03225806,0,4086.77419355,0,4078.06451613,0,4085.16129032,0,3736.77419355,0,4099.67741935,0,4067.74193548,0,4066.12903226,0,4365.16129032,0,4130.0,0,4850.32258065,0,4085.16129032,0,0,0,?
2017-11-11 16:24:21.929162,4097.09677419,0,4080.32258065,0,4162.25806452,0,4078.70967742,0,4070.64516129,0,4081.61290323,0,3724.19354839,0,4100.64516129,0,4068.70967742,0,4075.16129032,0,4400.0,0,4133.87096774,0,4855.16129032,0,4095.48387097,0,0,0,?
2017-11-11 16:24:21.929212,4113.22580645,0,4090.96774194,0,4170.64516129,0,4083.22580645,0,4076.12903226,0,4096.4516129,0,3751.61290323,0,4094.51612903,0,4067.74193548,0,4109.35483871,0,4395.16129032,0,4133.87096774,0,4810.96774194,0,4099.03225806,0,0,0,?
2017-11-11 16:24:21.929254,4114.19354839,0,4099.35483871,0,4206.4516129,0,4099.03225806,0,4086.77419355,0,4073.87096774,0,3757.41935484,0,4088.38709677,0,4065.16129032,0,4076.4516129,0,4381.29032258,0,4127.41935484,0,4806.4516129,0,4087.41935484,0,0,0,?
2017-11-11 16:24:21.929301,4101.29032258,0,4102.58064516,0,4180.0,0,4113.87096774,0,4095.48387097,0,4089.67741935,0,3738.70967742,0,4087.41935484,0,4114.19354839,0,4054.83870968,0,4360.32258065,0,4121.61290323,0,4847.41935484,0,4072.25806452,0,0,0,?
2017-11-11 16:24:21.929410,4092.25806452,0,4106.4516129,0,4163.87096774,0,4068.70967742,0,4101.61290323,0,4085.48387097,0,3762.25806452,0,4089.35483871,0,4064.83870968,0,4057.74193548,0,4349.03225806,0,4121.29032258,0,4846.77419355,0,4067.09677419,0,0,0,?
2017-11-11 16:24:21.929438,4090.32258065,0,4109.03225806,0,4162.25806452,0,4067.09677419,0,4103.87096774,0,4075.48387097,0,3765.80645161,0,4090.64516129,0,4066.77419355,0,4069.67741935,0,4343.87096774,0,4120.64516129,0,4852.90322581,0,4069.03225806,0,0,0,?
2017-11-11 16:24:21.929477,4083.22580645,0,4099.67741935,0,4163.22580645,0,4114.19354839,0,4098.06451613,0,4069.67741935,0,3766.77419355,0,4092.58064516,0,4067.41935484,0,4075.80645161,0,4327.09677419,0,4117.74193548,0,4856.12903226,0,4068.70967742,0,0,0,?
2017-11-11 16:24:21.929488,4071.61290323,0,4082.25806452,0,4165.48387097,0,4106.77419355,0,4085.80645161,0,4109.67741935,0,3773.22580645,0,4096.77419355,0,4066.4516129,0,4081.29032258,0,4353.87096774,0,4119.67741935,0,4807.74193548,0,4068.06451613,0,0,0,?
2017-11-11 16:24:21.929505,4072.25806452,0,4072.58064516,0,4177.09677419,0,4096.12903226,0,4078.06451613,0,4090.32258065,0,3774.51612903,0,4098.70967742,0,4065.16129032,0,4092.25806452,0,4350.64516129,0,4130.64516129,0,4818.70967742,0,4074.83870968,0,0,0,?
2017-11-11 16:24:21.929518,4087.09677419,0,4077.41935484,0,4191.93548387,0,4089.35483871,0,4081.29032258,0,4075.16129032,0,3772.25806452,0,4095.48387097,0,4114.51612903,0,4100.96774194,0,4370.96774194,0,4142.25806452,0,4831.29032258,0,4083.87096774,0,0,0,?
2017-11-11 16:24:21.929558,4095.80645161,0,4084.19354839,0,4192.90322581,0,4089.03225806,0,4088.70967742,0,4073.87096774,0,3782.25806452,0,4093.5483871,0,4064.51612903,0,4099.67741935,0,4337.74193548,0,4144.19354839,0,4828.06451613,0,4085.80645161,0,0,0,?
2017-11-11 16:24:21.929602,4086.77419355,0,4084.19354839,0,4180.0,0,4089.67741935,0,4090.64516129,0,4075.16129032,0,3749.03225806,0,4098.38709677,0,4066.12903226,0,4097.09677419,0,4335.80645161,0,4138.06451613,0,4810.0,0,4083.22580645,0,0,0,?
2017-11-11 16:24:21.929663,4076.77419355,0,4085.16129032,0,4172.90322581,0,4087.41935484,0,4089.03225806,0,4069.03225806,0,3746.4516129,0,4106.4516129,0,4068.06451613,0,4101.93548387,0,4330.96774194,0,4132.25806452,0,4847.74193548,0,4088.70967742,0,0,0,?
2017-11-11 16:24:21.929680,4081.29032258,0,4093.5483871,0,4178.06451613,0,4089.03225806,0,4091.61290323,0,4066.77419355,0,3770.32258065,0,4108.06451613,0,4069.03225806,0,4103.5483871,0,4337.41935484,0,4127.74193548,0,4850.96774194,0,4100.96774194,0,0,0,?
2017-11-11 16:24:21.929789,4088.70967742,0,4100.32258065,0,4180.64516129,0,4099.67741935,0,4096.12903226,0,4079.03225806,0,3753.87096774,0,4102.25806452,0,4068.70967742,0,4091.29032258,0,4342.25806452,0,4120.32258065,0,4856.4516129,0,4105.48387097,0,0,0,?
2017-11-11 16:24:21.929803,4083.87096774,0,4096.12903226,0,4171.29032258,0,4110.0,0,4095.16129032,0,4092.58064516,0,3769.03225806,0,4096.4516129,0,4067.41935484,0,4078.70967742,0,4334.83870968,0,4115.16129032,0,4853.22580645,0,4098.38709677,0,0,0,?
2017-11-11 16:24:21.929841,4074.51612903,0,4089.35483871,0,4163.22580645,0,4107.41935484,0,4088.38709677,0,4088.06451613,0,3791.93548387,0,4095.48387097,0,4066.77419355,0,4085.80645161,0,4330.0,0,4120.64516129,0,4849.67741935,0,4092.25806452,0,0,0,?
2017-11-11 16:24:21.929872,4074.83870968,0,4090.96774194,0,4169.03225806,0,4093.87096774,0,4082.58064516,0,4072.25806452,0,3791.93548387,0,4096.77419355,0,4066.77419355,0,4107.09677419,0,4343.22580645,0,4133.5483871,0,4853.87096774,0,4094.51612903,0,0,0,?
2017-11-11 16:24:21.930046,4081.61290323,0,4096.77419355,0,4179.67741935,0,4084.19354839,0,4081.29032258,0,4068.38709677,0,3775.48387097,0,4098.38709677,0,4066.77419355,0,4066.4516129,0,4358.70967742,0,4140.0,0,4856.12903226,0,4096.12903226,0,0,0,?
2017-11-11 16:24:21.930179,4081.29032258,0,4095.16129032,0,4180.64516129,0,4087.09677419,0,4082.90322581,0,4081.61290323,0,3767.09677419,0,4102.25806452,0,4065.80645161,0,4103.87096774,0,4352.58064516,0,4133.87096774,0,4846.4516129,0,4090.32258065,0,0,0,?
2017-11-11 16:24:21.930247,4076.4516129,0,4088.38709677,0,4175.80645161,0,4095.48387097,0,4085.48387097,0,4092.25806452,0,3768.38709677,0,4107.41935484,0,4114.51612903,0,4086.4516129,0,4333.5483871,0,4125.16129032,0,4836.77419355,0,4084.19354839,0,0,0,?
2017-11-11 16:24:21.930324,4078.70967742,0,4085.80645161,0,4175.16129032,0,4100.32258065,0,4088.70967742,0,4088.06451613,0,3766.12903226,0,4110.0,0,4113.5483871,0,4081.29032258,0,4327.41935484,0,4123.87096774,0,4842.58064516,0,4086.12903226,0,0,0,?
2017-11-11 16:24:21.930374,4083.87096774,0,4087.41935484,0,4176.77419355,0,4100.0,0,4088.38709677,0,4080.32258065,0,3765.48387097,0,4107.41935484,0,4113.87096774,0,4085.16129032,0,4337.41935484,0,4128.06451613,0,4856.4516129,0,4090.0,0,0,0,?
2017-11-11 16:24:21.930393,4081.29032258,0,4087.74193548,0,4172.90322581,0,4097.41935484,0,4081.93548387,0,4084.51612903,0,3778.70967742,0,4102.90322581,0,4065.48387097,0,4087.09677419,0,4342.25806452,0,4130.96774194,0,4809.67741935,0,4087.09677419,0,0,0,?
2017-11-11 16:24:21.930480,4075.80645161,0,4089.03225806,0,4172.58064516,0,4093.5483871,0,4073.87096774,0,4095.80645161,0,3742.90322581,0,4100.0,0,4067.09677419,0,4089.03225806,0,4334.83870968,0,4131.61290323,0,4853.5483871,0,4082.90322581,0,0,0,?
2017-11-11 16:24:21.933092,4082.25806452,0,4097.74193548,0,4188.06451613,0,4087.09677419,0,4072.25806452,0,4100.64516129,0,3783.5483871,0,4098.38709677,0,4068.06451613,0,4098.38709677,0,4330.64516129,0,4135.16129032,0,4854.51612903,0,4089.35483871,0,0,0,?
2017-11-11 16:24:21.933174,4096.12903226,0,4106.4516129,0,4209.35483871,0,4081.29032258,0,4077.41935484,0,4094.83870968,0,3755.80645161,0,4098.70967742,0,4067.74193548,0,4111.29032258,0,4335.48387097,0,4139.03225806,0,4816.4516129,0,4101.61290323,0,0,0,?
2017-11-11 16:24:21.933248,4099.67741935,0,4103.22580645,0,4162.90322581,0,4081.93548387,0,4083.5483871,0,4086.77419355,0,3745.16129032,0,4101.29032258,0,4066.77419355,0,4064.83870968,0,4335.48387097,0,4137.74193548,0,4823.87096774,0,4105.48387097,0,0,0,?
2017-11-11 16:24:21.933277,4092.58064516,0,4092.58064516,0,4197.74193548,0,4088.06451613,0,4089.03225806,0,4080.96774194,0,3762.90322581,0,4103.5483871,0,4066.12903226,0,4110.96774194,0,4326.77419355,0,4132.90322581,0,4819.67741935,0,4098.38709677,0,0,0,?
2017-11-11 16:24:21.933289,4091.29032258,0,4090.96774194,0,4183.87096774,0,4092.58064516,0,4095.80645161,0,4073.87096774,0,3782.58064516,0,4101.29032258,0,4065.48387097,0,4110.0,0,4324.51612903,0,4131.93548387,0,4815.48387097,0,4093.87096774,0,0,0,?
2017-11-11 16:24:21.933347,4100.0,0,4100.0,0,4183.87096774,0,4091.61290323,0,4100.0,0,4068.70967742,0,3784.19354839,0,4095.16129032,0,4065.48387097,0,4065.16129032,0,4332.90322581,0,4135.80645161,0,4818.70967742,0,4097.74193548,0,0,0,?
2017-11-11 16:24:21.933360,4102.90322581,0,4103.5483871,0,4187.09677419,0,4088.70967742,0,4095.16129032,0,4072.25806452,0,3782.25806452,0,4091.93548387,0,4065.80645161,0,4065.80645161,0,4333.5483871,0,4137.41935484,0,4819.35483871,0,4100.0,0,0,0,?
2017-11-11 16:24:21.933470,4094.51612903,0,4094.83870968,0,4185.16129032,0,4088.70967742,0,4084.83870968,0,4084.83870968,0,3742.58064516,0,4095.16129032,0,4066.77419355,0,4107.74193548,0,4366.77419355,0,4132.90322581,0,4810.64516129,0,4093.87096774,0,0,0,?
2017-11-11 16:24:21.933501,4088.38709677,0,4085.16129032,0,4185.48387097,0,4091.61290323,0,4080.64516129,0,4093.22580645,0,3754.51612903,0,4100.64516129,0,4067.41935484,0,4098.70967742,0,4353.87096774,0,4128.38709677,0,4854.83870968,0,4087.41935484,0,0,0,?
2017-11-11 16:24:21.933577,4092.25806452,0,4083.87096774,0,4190.64516129,0,4092.90322581,0,4086.77419355,0,4089.67741935,0,3755.16129032,0,4103.22580645,0,4067.74193548,0,4096.4516129,0,4363.5483871,0,4129.35483871,0,4810.32258065,0,4087.74193548,0,0,0,?
2017-11-11 16:24:21.933594,4091.61290323,0,4084.83870968,0,4187.41935484,0,4093.5483871,0,4095.16129032,0,4080.64516129,0,3755.80645161,0,4102.25806452,0,4067.09677419,0,4093.87096774,0,4330.32258065,0,4131.29032258,0,4817.09677419,0,4087.09677419,0,0,0,?
2017-11-11 16:24:21.933693,4077.41935484,0,4081.93548387,0,4169.35483871,0,4095.80645161,0,4100.0,0,4077.09677419,0,3767.41935484,0,4101.29032258,0,4065.80645161,0,4083.87096774,0,4329.67741935,0,4128.38709677,0,4812.25806452,0,4080.0,0,0,0,?
2017-11-11 16:24:21.933813,4065.16129032,0,4082.90322581,0,4153.5483871,0,4097.41935484,0,4101.93548387,0,4079.03225806,0,3772.58064516,0,4100.32258065,0,4114.51612903,0,4073.22580645,0,4366.12903226,0,4122.90322581,0,4852.58064516,0,4074.51612903,0,0,0,?
2017-11-11 16:24:21.933946,4070.0,0,4091.29032258,0,4156.77419355,0,4094.83870968,0,4101.29032258,0,4080.0,0,3753.87096774,0,4098.70967742,0,4114.51612903,0,4072.58064516,0,4361.29032258,0,4121.61290323,0,4850.64516129,0,4078.70967742,0,0,0,?
2017-11-11 16:24:21.933961,4081.93548387,0,4096.4516129,0,4170.0,0,4089.03225806,0,4095.48387097,0,4078.70967742,0,3780.0,0,4098.38709677,0,4065.80645161,0,4079.35483871,0,4366.4516129,0,4123.22580645,0,4852.90322581,0,4086.4516129,0,0,0,?
2017-11-11 16:24:21.934027,4082.90322581,0,4088.70967742,0,4174.19354839,0,4086.4516129,0,4085.16129032,0,4079.67741935,0,3781.29032258,0,4100.0,0,4068.38709677,0,4082.25806452,0,4364.83870968,0,4120.96774194,0,4847.74193548,0,4086.12903226,0,0,0,?
2017-11-11 16:24:21.934089,4077.41935484,0,4078.06451613,0,4170.96774194,0,4089.67741935,0,4079.35483871,0,4082.90322581,0,3752.25806452,0,4100.64516129,0,4070.96774194,0,4080.96774194,0,4358.70967742,0,4116.4516129,0,4837.74193548,0,4080.32258065,0,0,0,?
2017-11-11 16:24:21.934176,4080.0,0,4080.0,0,4173.5483871,0,4093.87096774,0,4082.25806452,0,4084.83870968,0,3758.70967742,0,4098.70967742,0,4071.93548387,0,4084.19354839,0,4367.74193548,0,4115.48387097,0,4838.06451613,0,4080.0,0,0,0,?
2017-11-11 16:24:21.934241,4086.4516129,0,4091.61290323,0,4181.93548387,0,4094.83870968,0,4088.06451613,0,4084.83870968,0,3790.0,0,4097.09677419,0,4070.96774194,0,4091.93548387,0,4341.29032258,0,4118.70967742,0,4849.35483871,0,4084.51612903,0,0,0,?
2017-11-11 16:24:21.934265,4082.58064516,0,4098.06451613,0,4183.5483871,0,4093.22580645,0,4088.70967742,0,4086.12903226,0,3766.77419355,0,4099.67741935,0,4068.06451613,0,4096.77419355,0,4357.74193548,0,4122.58064516,0,4807.09677419,0,4086.12903226,0,0,0,?
2017-11-11 16:24:21.934278,4073.5483871,0,4096.77419355,0,4181.29032258,0,4090.0,0,4088.06451613,0,4084.51612903,0,3753.5483871,0,4103.87096774,0,4064.83870968,0,4098.70967742,0,4359.67741935,0,4125.48387097,0,4807.09677419,0,4086.12903226,0,0,0,?
2017-11-11 16:24:21.934308,4078.06451613,0,4097.74193548,0,4188.38709677,0,4085.16129032,0,4092.90322581,0,4074.83870968,0,3742.58064516,0,4102.25806452,0,4112.58064516,0,4106.77419355,0,4364.83870968,0,4131.61290323,0,4810.32258065,0,4093.22580645,0,0,0,?
2017-11-11 16:24:21.934324,4094.51612903,0,4100.96774194,0,4204.19354839,0,4080.96774194,0,4100.96774194,0,4062.58064516,0,3733.87096774,0,4094.19354839,0,4111.29032258,0,4070.32258065,0,4378.38709677,0,4140.64516129,0,4819.35483871,0,4104.51612903,0,0,0,?
2017-11-11 16:24:21.934362,4096.4516129,0,4089.67741935,0,4206.4516129,0,4090.64516129,0,4100.0,0,4075.16129032,0,3768.38709677,0,4085.80645161,0,4113.87096774,0,4068.70967742,0,4352.90322581,0,4146.4516129,0,4810.96774194,0,4100.64516129,0,0,0,?
2017-11-11 16:24:21.934438,4096.4516129,0,4089.67741935,0,4206.4516129,0,4090.64516129,0,4100.0,0,4075.16129032,0,3768.38709677,0,4085.80645161,0,4113.87096774,0,4068.70967742,0,4352.90322581,0,4146.4516129,0,4810.96774194,0,4100.64516129,0,0,0,?
2017-11-11 16:24:21.934487,4090.64516129,0,4089.67741935,0,4201.61290323,0,4098.38709677,0,4094.51612903,0,4090.96774194,0,3777.74193548,0,4090.0,0,4067.09677419,0,4105.80645161,0,4326.77419355,0,4145.16129032,0,4852.25806452,0,4096.4516129,0,0,0,?
2017-11-11 16:24:21.934546,4094.19354839,0,4100.32258065,0,4202.58064516,0,4099.35483871,0,4091.29032258,0,4097.09677419,0,3759.35483871,0,4095.48387097,0,4070.0,0,4099.03225806,0,4323.87096774,0,4145.80645161,0,4855.16129032,0,4099.03225806,0,0,0,?
2017-11-11 16:24:21.934694,4095.16129032,0,4106.77419355,0,4196.77419355,0,4095.16129032,0,4087.74193548,0,4095.16129032,0,3742.90322581,0,4100.96774194,0,4070.96774194,0,4097.74193548,0,4333.87096774,0,4144.51612903,0,4810.96774194,0,4099.03225806,0,0,0,?
2017-11-11 16:24:21.934749,4086.4516129,0,4099.03225806,0,4179.67741935,0,4091.61290323,0,4085.80645161,0,4092.58064516,0,3755.48387097,0,4105.48387097,0,4068.38709677,0,4095.80645161,0,4332.90322581,0,4137.74193548,0,4807.41935484,0,4091.93548387,0,0,0,?
2017-11-11 16:24:21.934825,4081.29032258,0,4087.74193548,0,4168.06451613,0,4089.67741935,0,4090.0,0,4090.32258065,0,3780.96774194,0,4105.80645161,0,4113.87096774,0,4095.80645161,0,4370.64516129,0,4131.61290323,0,4851.61290323,0,4087.74193548,0,0,0,?
2017-11-11 16:24:21.934844,4089.35483871,0,4084.19354839,0,4174.19354839,0,4087.09677419,0,4097.74193548,0,4086.4516129,0,3790.32258065,0,4101.29032258,0,4109.67741935,0,4100.32258065,0,4360.64516129,0,4131.93548387,0,4854.51612903,0,4092.25806452,0,0,0,?
2017-11-11 16:24:21.934889,4096.77419355,0,4084.83870968,0,4185.16129032,0,4085.16129032,0,4098.06451613,0,4083.22580645,0,3786.12903226,0,4096.12903226,0,4109.03225806,0,4101.93548387,0,4350.96774194,0,4135.80645161,0,4812.25806452,0,4095.48387097,0,0,0,?
2017-11-11 16:24:21.934969,4089.03225806,0,4081.93548387,0,4183.87096774,0,4087.74193548,0,4087.74193548,0,4085.16129032,0,3791.93548387,0,4095.16129032,0,4112.25806452,0,4093.22580645,0,4332.25806452,0,4135.80645161,0,4812.25806452,0,4085.48387097,0,0,0,?
2017-11-11 16:24:21.935031,4075.16129032,0,4080.0,0,4175.16129032,0,4093.22580645,0,4076.4516129,0,4088.06451613,0,3757.09677419,0,4096.77419355,0,4066.12903226,0,4080.96774194,0,4317.74193548,0,4132.90322581,0,4807.09677419,0,4069.03225806,0,0,0,?
2017-11-11 16:24:21.935109,4070.64516129,0,4084.19354839,0,4172.25806452,0,4097.09677419,0,4074.83870968,0,4085.80645161,0,3764.83870968,0,4097.41935484,0,4068.06451613,0,4077.74193548,0,4329.67741935,0,4131.93548387,0,4809.35483871,0,4059.67741935,0,0,0,?
2017-11-11 16:24:21.935139,4071.61290323,0,4086.12903226,0,4172.90322581,0,4096.4516129,0,4081.93548387,0,4082.25806452,0,3764.83870968,0,4097.41935484,0,4067.09677419,0,4083.5483871,0,4359.03225806,0,4132.90322581,0,4816.4516129,0,4059.03225806,0,0,0,?
2017-11-11 16:24:21.935148,4065.48387097,0,4076.4516129,0,4166.12903226,0,4094.83870968,0,4089.67741935,0,4084.83870968,0,3770.0,0,4099.03225806,0,4064.83870968,0,4086.4516129,0,4372.25806452,0,4129.67741935,0,4815.16129032,0,4060.64516129,0,0,0,?
2017-11-11 16:24:21.935176,4059.67741935,0,4064.51612903,0,4158.70967742,0,4092.90322581,0,4096.12903226,0,4090.32258065,0,3774.51612903,0,4100.64516129,0,4113.87096774,0,4083.22580645,0,4360.96774194,0,4123.22580645,0,4855.80645161,0,4067.74193548,0,0,0,?
2017-11-11 16:24:21.935217,4070.0,0,4067.09677419,0,4166.12903226,0,4088.38709677,0,4100.96774194,0,4088.06451613,0,3756.4516129,0,4098.70967742,0,4114.51612903,0,4082.90322581,0,4351.93548387,0,4120.32258065,0,4853.5483871,0,4085.80645161,0,0,0,?
2017-11-11 16:24:21.935310,4091.61290323,0,4083.22580645,0,4183.87096774,0,4081.93548387,0,4100.32258065,0,4078.06451613,0,3771.61290323,0,4094.83870968,0,4066.12903226,0,4089.67741935,0,4363.87096774,0,4122.25806452,0,4811.61290323,0,4104.83870968,0,0,0,?
2017-11-11 16:24:21.935419,4101.93548387,0,4097.09677419,0,4191.61290323,0,4078.06451613,0,4091.93548387,0,4070.32258065,0,3751.93548387,0,4093.87096774,0,4067.41935484,0,4095.16129032,0,4332.90322581,0,4124.51612903,0,4814.19354839,0,4107.09677419,0,0,0,?
2017-11-11 16:24:21.935550,4095.48387097,0,4102.90322581,0,4184.19354839,0,4080.32258065,0,4082.25806452,0,4070.96774194,0,3762.25806452,0,4097.74193548,0,4067.74193548,0,4094.19354839,0,4342.90322581,0,4124.51612903,0,4854.19354839,0,4093.87096774,0,0,0,?
2017-11-11 16:24:21.935604,4090.64516129,0,4108.38709677,0,4177.74193548,0,4085.80645161,0,4081.29032258,0,4073.22580645,0,3777.74193548,0,4102.25806452,0,4067.41935484,0,4094.51612903,0,4350.32258065,0,4126.4516129,0,4844.83870968,0,4084.83870968,0,0,0,?
2017-11-11 16:24:21.935699,4094.83870968,0,4114.51612903,0,4181.93548387,0,4088.70967742,0,4088.06451613,0,4071.93548387,0,3779.35483871,0,4103.5483871,0,4067.41935484,0,4101.61290323,0,4359.67741935,0,4131.29032258,0,4848.06451613,0,4090.96774194,0,0,0,?
2017-11-11 16:24:21.935760,4095.16129032,0,4111.61290323,0,4185.48387097,0,4089.03225806,0,4093.22580645,0,4071.29032258,0,3779.67741935,0,4102.58064516,0,4068.06451613,0,4108.38709677,0,4357.74193548,0,4132.58064516,0,4854.83870968,0,4101.29032258,0,0,0,?
2017-11-11 16:24:21.935840,4084.83870968,0,4098.06451613,0,4181.61290323,0,4089.03225806,0,4092.58064516,0,4075.16129032,0,3791.93548387,0,4101.29032258,0,4068.38709677,0,4107.41935484,0,4339.35483871,0,4127.74193548,0,4854.19354839,0,4102.90322581,0,0,0,?
2017-11-11 16:24:21.935856,4079.03225806,0,4089.03225806,0,4181.29032258,0,4089.03225806,0,4091.93548387,0,4079.03225806,0,3751.93548387,0,4099.35483871,0,4067.09677419,0,4103.22580645,0,4327.41935484,0,4125.16129032,0,4852.58064516,0,4098.70967742,0,0,0,?
2017-11-11 16:24:21.936019,4088.70967742,0,4090.96774194,0,4190.96774194,0,4087.09677419,0,4094.83870968,0,4079.67741935,0,3743.87096774,0,4096.4516129,0,4064.83870968,0,4102.25806452,0,4341.61290323,0,4131.29032258,0,4807.41935484,0,4094.83870968,0,0,0,?
2017-11-11 16:24:21.936043,4100.64516129,0,4093.87096774,0,4197.74193548,0,4085.48387097,0,4096.12903226,0,4081.29032258,0,3780.96774194,0,4096.4516129,0,4112.58064516,0,4100.32258065,0,4363.87096774,0,4139.35483871,0,4810.64516129,0,4088.70967742,0,0,0,?
2017-11-11 16:24:21.936115,4099.35483871,0,4089.67741935,0,4191.29032258,0,4087.74193548,0,4092.58064516,0,4088.70967742,0,3780.32258065,0,4100.96774194,0,4111.61290323,0,4091.29032258,0,4363.5483871,0,4139.03225806,0,4852.25806452,0,4077.74193548,0,0,0,?
2017-11-11 16:24:21.936127,4091.93548387,0,4086.4516129,0,4181.61290323,0,4092.25806452,0,4088.38709677,0,4095.80645161,0,3780.96774194,0,4106.4516129,0,4112.25806452,0,4081.61290323,0,4345.16129032,0,4130.64516129,0,4840.64516129,0,4071.61290323,0,0,0,?
2017-11-11 16:24:21.936161,4091.29032258,0,4091.29032258,0,4183.22580645,0,4094.51612903,0,4086.4516129,0,4094.83870968,0,3766.4516129,0,4107.74193548,0,4113.87096774,0,4080.96774194,0,4335.48387097,0,4124.19354839,0,4843.5483871,0,4078.70967742,0,0,0,?
2017-11-11 16:24:21.936219,4091.61290323,0,4094.19354839,0,4188.06451613,0,4094.19354839,0,4084.51612903,0,4090.64516129,0,3750.0,0,4104.83870968,0,4064.83870968,0,4088.38709677,0,4339.03225806,0,4123.22580645,0,4807.09677419,0,4089.35483871,0,0,0,?
2017-11-11 16:24:21.936283,4083.22580645,0,4084.83870968,0,4181.93548387,0,4094.19354839,0,4080.64516129,0,4091.93548387,0,3758.70967742,0,4102.25806452,0,4064.51612903,0,4093.87096774,0,4336.4516129,0,4124.51612903,0,4813.5483871,0,4090.0,0,0,0,?
2017-11-11 16:24:21.936338,4074.83870968,0,4072.25806452,0,4171.29032258,0,4095.80645161,0,4079.67741935,0,4097.74193548,0,3784.19354839,0,4100.32258065,0,4113.87096774,0,4096.4516129,0,4371.93548387,0,4126.12903226,0,4808.70967742,0,4083.5483871,0,0,0,?
2017-11-11 16:24:21.936424,4083.87096774,0,4072.25806452,0,4173.87096774,0,4095.16129032,0,4084.83870968,0,4097.74193548,0,3742.58064516,0,4097.74193548,0,4114.19354839,0,4103.5483871,0,4362.58064516,0,4129.35483871,0,4806.4516129,0,4083.22580645,0,0,0,?
2017-11-11 16:24:21.936437,4101.93548387,0,4083.22580645,0,4188.70967742,0,4091.29032258,0,4090.32258065,0,4090.96774194,0,3777.09677419,0,4097.09677419,0,4065.48387097,0,4064.51612903,0,4363.22580645,0,4132.58064516,0,4812.25806452,0,4089.67741935,0,0,0,?
2017-11-11 16:24:21.936514,4104.83870968,0,4090.0,0,4197.09677419,0,4088.38709677,0,4088.06451613,0,4086.77419355,0,3765.80645161,0,4100.32258065,0,4066.77419355,0,4069.67741935,0,4360.64516129,0,4131.61290323,0,4816.4516129,0,4091.29032258,0,0,0,?
2017-11-11 16:24:21.936530,4090.32258065,0,4091.29032258,0,4192.58064516,0,4089.03225806,0,4082.58064516,0,4087.74193548,0,3776.77419355,0,4105.48387097,0,4065.80645161,0,4064.83870968,0,4353.22580645,0,4128.70967742,0,4814.51612903,0,4085.16129032,0,0,0,?
2017-11-11 16:24:21.936685,4079.03225806,0,4097.09677419,0,4188.06451613,0,4090.32258065,0,4081.61290323,0,4086.4516129,0,3744.19354839,0,4105.80645161,0,4112.90322581,0,4109.03225806,0,4360.32258065,0,4130.64516129,0,4815.80645161,0,4082.58064516,0,0,0,?
2017-11-11 16:24:21.936742,4080.32258065,0,4107.09677419,0,4188.70967742,0,4089.67741935,0,4086.12903226,0,4079.35483871,0,3755.16129032,0,4100.64516129,0,4110.96774194,0,4107.74193548,0,4333.87096774,0,4137.74193548,0,4823.22580645,0,4088.06451613,0,0,0,?
2017-11-11 16:24:21.936767,4081.93548387,0,4107.74193548,0,4184.19354839,0,4088.70967742,0,4088.70967742,0,4073.22580645,0,3768.70967742,0,4095.48387097,0,4113.22580645,0,4105.48387097,0,4345.80645161,0,4140.32258065,0,4824.83870968,0,4091.93548387,0,0,0,?
2017-11-11 16:24:21.936794,4077.41935484,0,4095.48387097,0,4173.5483871,0,4090.64516129,0,4088.38709677,0,4072.90322581,0,3787.09677419,0,4094.83870968,0,4068.06451613,0,4097.74193548,0,4326.12903226,0,4133.5483871,0,4815.16129032,0,4089.35483871,0,0,0,?
2017-11-11 16:24:21.936881,4078.70967742,0,4084.51612903,0,4171.29032258,0,4093.5483871,0,4089.35483871,0,4073.87096774,0,3787.41935484,0,4096.4516129,0,4070.96774194,0,4090.96774194,0,4348.06451613,0,4125.16129032,0,4807.41935484,0,4086.12903226,0,0,0,?
2017-11-11 16:24:21.936895,4089.67741935,0,4082.90322581,0,4182.90322581,0,4093.5483871,0,4091.61290323,0,4071.93548387,0,3759.03225806,0,4097.09677419,0,4066.4516129,0,4091.61290323,0,4341.93548387,0,4124.19354839,0,4812.25806452,0,4086.4516129,0,0,0,?
2017-11-11 16:24:21.936938,4093.87096774,0,4084.19354839,0,4190.64516129,0,4091.61290323,0,4088.70967742,0,4071.93548387,0,3780.32258065,0,4097.41935484,0,4105.80645161,0,4092.25806452,0,4355.80645161,0,4126.77419355,0,4817.41935484,0,4083.5483871,0,0,0,?
2017-11-11 16:24:21.936951,4082.25806452,0,4083.5483871,0,4181.29032258,0,4092.25806452,0,4080.64516129,0,4078.38709677,0,3778.38709677,0,4099.35483871,0,4093.5483871,0,4085.80645161,0,4369.35483871,0,4125.80645161,0,4808.70967742,0,4075.16129032,0,0,0,?
2017-11-11 16:24:21.937030,4070.0,0,4088.70967742,0,4166.77419355,0,4094.83870968,0,4076.12903226,0,4085.80645161,0,3741.93548387,0,4100.0,0,4087.74193548,0,4077.41935484,0,4328.70967742,0,4121.93548387,0,4844.51612903,0,4073.5483871,0,0,0,?
2017-11-11 16:24:21.937076,4073.22580645,0,4101.29032258,0,4163.87096774,0,4095.48387097,0,4079.67741935,0,4085.80645161,0,3745.48387097,0,4098.70967742,0,4092.58064516,0,4076.77419355,0,4343.5483871,0,4119.35483871,0,4841.29032258,0,4085.48387097,0,0,0,?
2017-11-11 16:24:21.937115,4082.25806452,0,4106.4516129,0,4169.35483871,0,4093.5483871,0,4086.12903226,0,4081.29032258,0,3791.29032258,0,4098.38709677,0,4105.16129032,0,4081.93548387,0,4352.58064516,0,4119.35483871,0,4848.70967742,0,4099.03225806,0,0,0,?
2017-11-11 16:24:21.937273,4081.29032258,0,4093.22580645,0,4169.35483871,0,4092.58064516,0,4089.35483871,0,4079.67741935,0,3748.06451613,0,4101.61290323,0,4068.06451613,0,4082.58064516,0,4340.96774194,0,4119.67741935,0,4853.22580645,0,4099.03225806,0,0,0,?
2017-11-11 16:24:21.937313,4075.80645161,0,4074.51612903,0,4167.41935484,0,4093.87096774,0,4090.64516129,0,4081.61290323,0,3761.29032258,0,4104.19354839,0,4074.19354839,0,4079.67741935,0,4371.29032258,0,4122.25806452,0,4852.90322581,0,4088.38709677,0,0,0,?
2017-11-11 16:24:21.937336,4080.96774194,0,4069.67741935,0,4173.87096774,0,4093.87096774,0,4092.25806452,0,4081.29032258,0,3757.09677419,0,4102.25806452,0,4070.96774194,0,4081.93548387,0,4372.25806452,0,4129.35483871,0,4806.4516129,0,4081.61290323,0,0,0,?
2017-11-11 16:24:21.937512,4092.25806452,0,4080.32258065,0,4185.16129032,0,4091.61290323,0,4089.35483871,0,4080.64516129,0,3785.16129032,0,4098.06451613,0,4113.87096774,0,4089.67741935,0,4345.80645161,0,4138.38709677,0,4810.96774194,0,4082.25806452,0,0,0,?
2017-11-11 16:24:21.937524,4093.5483871,0,4091.93548387,0,4188.38709677,0,4089.67741935,0,4079.67741935,0,4085.48387097,0,3767.41935484,0,4097.74193548,0,4109.35483871,0,4094.19354839,0,4362.90322581,0,4141.29032258,0,4854.83870968,0,4082.90322581,0,0,0,?
2017-11-11 16:24:21.937604,4086.4516129,0,4099.35483871,0,4185.48387097,0,4088.70967742,0,4072.58064516,0,4092.58064516,0,3760.32258065,0,4102.25806452,0,4110.96774194,0,4093.87096774,0,4359.03225806,0,4139.03225806,0,4842.25806452,0,4084.19354839,0,0,0,?
2017-11-11 16:24:21.937633,4086.4516129,0,4106.12903226,0,4190.32258065,0,4085.16129032,0,4078.06451613,0,4091.93548387,0,3748.38709677,0,4105.80645161,0,4066.4516129,0,4098.38709677,0,4351.93548387,0,4139.03225806,0,4843.5483871,0,4092.58064516,0,0,0,?
2017-11-11 16:24:21.937766,4094.83870968,0,4110.0,0,4201.29032258,0,4078.38709677,0,4092.25806452,0,4081.61290323,0,3733.87096774,0,4105.80645161,0,4070.96774194,0,4109.35483871,0,4354.83870968,0,4143.5483871,0,4813.5483871,0,4103.5483871,0,0,0,?
2017-11-11 16:24:21.937789,4096.4516129,0,4102.90322581,0,4204.51612903,0,4073.5483871,0,4101.93548387,0,4072.90322581,0,3740.32258065,0,4104.19354839,0,4071.61290323,0,4067.09677419,0,4353.5483871,0,4146.4516129,0,4832.58064516,0,4105.48387097,0,0,0,?
2017-11-11 16:24:21.937878,4090.64516129,0,4090.64516129,0,4197.74193548,0,4075.80645161,0,4100.0,0,4074.51612903,0,3770.0,0,4103.5483871,0,4069.35483871,0,4064.83870968,0,4335.16129032,0,4143.22580645,0,4832.90322581,0,4098.06451613,0,0,0,?
2017-11-11 16:24:21.937920,4091.93548387,0,4088.70967742,0,4195.48387097,0,4083.22580645,0,4092.58064516,0,4081.29032258,0,3789.67741935,0,4102.90322581,0,4067.41935484,0,4109.67741935,0,4363.87096774,0,4138.70967742,0,4823.5483871,0,4094.51612903,0,0,0,?
2017-11-11 16:24:21.938012,4103.5483871,0,4098.70967742,0,4201.61290323,0,4090.0,0,4085.48387097,0,4085.80645161,0,3780.32258065,0,4102.25806452,0,4067.74193548,0,4105.80645161,0,4354.51612903,0,4137.74193548,0,4817.41935484,0,4100.0,0,0,0,?
2017-11-11 16:24:21.938042,4106.12903226,0,4103.87096774,0,4200.0,0,4093.5483871,0,4080.64516129,0,4088.38709677,0,3765.80645161,0,4103.22580645,0,4068.38709677,0,4099.67741935,0,4351.29032258,0,4138.38709677,0,4813.87096774,0,4101.93548387,0,0,0,?
2017-11-11 16:24:21.938152,4091.29032258,0,4095.80645161,0,4181.93548387,0,4095.16129032,0,4080.32258065,0,4090.64516129,0,3776.12903226,0,4104.83870968,0,4068.06451613,0,4089.03225806,0,4344.51612903,0,4135.80645161,0,4806.77419355,0,4091.93548387,0,0,0,?
2017-11-11 16:24:21.938167,4074.83870968,0,4086.12903226,0,4162.90322581,0,4094.19354839,0,4088.06451613,0,4089.03225806,0,3749.67741935,0,4103.5483871,0,4067.41935484,0,4083.87096774,0,4347.09677419,0,4132.25806452,0,4853.22580645,0,4080.0,0,0,0,?
2017-11-11 16:24:21.938203,4071.93548387,0,4085.80645161,0,4159.35483871,0,4090.64516129,0,4099.67741935,0,4082.90322581,0,3761.61290323,0,4097.41935484,0,4067.41935484,0,4090.96774194,0,4369.67741935,0,4132.25806452,0,4810.32258065,0,4077.74193548,0,0,0,?
2017-11-11 16:24:21.938245,4073.5483871,0,4087.74193548,0,4163.87096774,0,4088.70967742,0,4103.22580645,0,4079.03225806,0,3761.29032258,0,4091.29032258,0,4068.70967742,0,4100.64516129,0,4341.61290323,0,4132.58064516,0,4818.70967742,0,4079.35483871,0,0,0,?
2017-11-11 16:24:21.938328,4066.12903226,0,4083.5483871,0,4163.5483871,0,4092.58064516,0,4094.83870968,0,4083.87096774,0,3764.83870968,0,4091.29032258,0,4070.64516129,0,4098.70967742,0,4333.22580645,0,4128.38709677,0,4814.19354839,0,4075.16129032,0,0,0,?
2017-11-11 16:24:21.938354,4058.38709677,0,4078.06451613,0,4161.93548387,0,4100.32258065,0,4082.90322581,0,4091.29032258,0,3767.09677419,0,4095.80645161,0,4071.61290323,0,4086.12903226,0,4351.61290323,0,4122.58064516,0,4852.90322581,0,4068.70967742,0,0,0,?
2017-11-11 16:24:21.938436,4063.5483871,0,4079.67741935,0,4167.09677419,0,4104.83870968,0,4077.41935484,0,4091.61290323,0,3754.83870968,0,4098.70967742,0,4070.96774194,0,4075.48387097,0,4330.32258065,0,4121.93548387,0,4849.67741935,0,4069.35483871,0,0,0,?
2017-11-11 16:24:21.938466,4073.5483871,0,4081.93548387,0,4170.32258065,0,4103.5483871,0,4077.41935484,0,4085.48387097,0,3788.06451613,0,4099.35483871,0,4068.70967742,0,4071.29032258,0,4332.25806452,0,4124.51612903,0,4854.19354839,0,4073.87096774,0,0,0,?
2017-11-11 16:24:21.938480,4072.90322581,0,4076.4516129,0,4160.32258065,0,4100.32258065,0,4080.0,0,4082.90322581,0,3790.32258065,0,4100.32258065,0,4065.48387097,0,4070.32258065,0,4340.0,0,4123.5483871,0,4852.25806452,0,4074.51612903,0,0,0,?
2017-11-11 16:24:21.938586,4066.77419355,0,4071.93548387,0,4147.74193548,0,4096.4516129,0,4085.16129032,0,4085.80645161,0,3756.12903226,0,4102.90322581,0,4113.87096774,0,4072.58064516,0,4345.80645161,0,4119.03225806,0,4843.22580645,0,4074.83870968,0,0,0,?
2017-11-11 16:24:21.938638,4073.22580645,0,4081.29032258,0,4154.83870968,0,4090.96774194,0,4093.22580645,0,4087.09677419,0,3756.12903226,0,4103.22580645,0,4114.19354839,0,4084.51612903,0,4360.64516129,0,4118.06451613,0,4843.5483871,0,4084.83870968,0,0,0,?
2017-11-11 16:24:21.938660,4090.32258065,0,4099.03225806,0,4180.64516129,0,4084.83870968,0,4098.06451613,0,4083.5483871,0,3784.19354839,0,4100.32258065,0,4066.12903226,0,4101.29032258,0,4335.16129032,0,4122.58064516,0,4856.4516129,0,4100.0,0,0,0,?
2017-11-11 16:24:21.938715,4099.35483871,0,4107.09677419,0,4202.25806452,0,4083.87096774,0,4094.83870968,0,4079.03225806,0,3767.41935484,0,4097.41935484,0,4068.38709677,0,4109.35483871,0,4350.32258065,0,4126.4516129,0,4816.4516129,0,4104.19354839,0,0,0,?
2017-11-11 16:24:21.938728,4097.09677419,0,4101.29032258,0,4207.74193548,0,4090.0,0,4088.38709677,0,4076.12903226,0,3770.96774194,0,4096.12903226,0,4069.03225806,0,4104.83870968,0,4348.38709677,0,4126.77419355,0,4813.5483871,0,4094.83870968,0,0,0,?
2017-11-11 16:24:21.938805,4100.32258065,0,4095.48387097,0,4206.4516129,0,4097.74193548,0,4087.41935484,0,4070.32258065,0,3777.09677419,0,4095.48387097,0,4066.77419355,0,4100.64516129,0,4348.38709677,0,4128.70967742,0,4807.09677419,0,4087.09677419,0,0,0,?
2017-11-11 16:24:21.938838,4112.58064516,0,4095.48387097,0,4205.48387097,0,4100.32258065,0,4092.90322581,0,4063.5483871,0,3770.96774194,0,4096.12903226,0,4114.19354839,0,4105.16129032,0,4360.64516129,0,4134.19354839,0,4856.4516129,0,4090.32258065,0,0,0,?
2017-11-11 16:24:21.938999,4104.83870968,0,4087.09677419,0,4185.48387097,0,4091.93548387,0,4097.74193548,0,4077.09677419,0,3770.0,0,4105.80645161,0,4112.90322581,0,4108.38709677,0,4350.32258065,0,4136.4516129,0,4847.41935484,0,4100.32258065,0,0,0,?
2017-11-11 16:24:21.939027,4104.83870968,0,4087.09677419,0,4185.48387097,0,4091.93548387,0,4097.74193548,0,4077.09677419,0,3770.0,0,4105.80645161,0,4112.90322581,0,4108.38709677,0,4350.32258065,0,4136.4516129,0,4847.41935484,0,4100.32258065,0,0,0,?
2017-11-11 16:24:21.939052,4092.58064516,0,4084.83870968,0,4183.5483871,0,4087.09677419,0,4098.70967742,0,4090.96774194,0,3771.93548387,0,4108.06451613,0,4065.48387097,0,4100.96774194,0,4332.25806452,0,4133.87096774,0,4844.19354839,0,4102.58064516,0,0,0,?
2017-11-11 16:24:21.939064,4092.25806452,0,4091.29032258,0,4197.41935484,0,4083.5483871,0,4099.67741935,0,4095.80645161,0,3760.96774194,0,4102.90322581,0,4068.06451613,0,4096.77419355,0,4333.87096774,0,4136.12903226,0,4852.25806452,0,4105.48387097,0,0,0,?
2017-11-11 16:24:21.939092,4093.87096774,0,4095.16129032,0,4208.70967742,0,4083.87096774,0,4095.16129032,0,4093.87096774,0,3755.48387097,0,4095.48387097,0,4069.03225806,0,4093.87096774,0,4342.90322581,0,4139.35483871,0,4810.32258065,0,4101.29032258,0,0,0,?
2017-11-11 16:24:21.939175,4086.4516129,0,4088.70967742,0,4202.25806452,0,4090.0,0,4085.48387097,0,4092.90322581,0,3772.90322581,0,4092.25806452,0,4068.06451613,0,4087.09677419,0,4334.19354839,0,4136.4516129,0,4855.48387097,0,4086.12903226,0,0,0,?
2017-11-11 16:24:21.939239,4080.64516129,0,4082.25806452,0,4186.77419355,0,4096.77419355,0,4078.38709677,0,4092.90322581,0,3743.87096774,0,4093.87096774,0,4065.48387097,0,4081.93548387,0,4360.0,0,4128.70967742,0,4844.83870968,0,4072.90322581,0,0,0,?
2017-11-11 16:24:21.939250,4087.09677419,0,4087.41935484,0,4178.38709677,0,4097.09677419,0,4078.06451613,0,4090.0,0,3742.58064516,0,4096.4516129,0,4112.90322581,0,4084.83870968,0,4343.5483871,0,4122.90322581,0,4846.12903226,0,4072.58064516,0,0,0,?
2017-11-11 16:24:21.939279,4093.5483871,0,4096.4516129,0,4172.58064516,0,4091.93548387,0,4078.70967742,0,4086.4516129,0,3779.03225806,0,4100.0,0,4111.93548387,0,4091.29032258,0,4338.70967742,0,4120.0,0,4807.09677419,0,4077.41935484,0,0,0,?
2017-11-11 16:24:21.939315,4084.51612903,0,4095.80645161,0,4159.03225806,0,4088.70967742,0,4077.74193548,0,4088.06451613,0,3784.83870968,0,4104.19354839,0,4112.90322581,0,4091.29032258,0,4332.90322581,0,4119.35483871,0,4812.25806452,0,4074.51612903,0,0,0,?
2017-11-11 16:24:21.939380,4069.35483871,0,4088.70967742,0,4146.77419355,0,4091.29032258,0,4079.35483871,0,4092.58064516,0,3760.0,0,4105.80645161,0,4065.48387097,0,4086.12903226,0,4329.67741935,0,4122.58064516,0,4808.70967742,0,4066.77419355,0,0,0,?
2017-11-11 16:24:21.939392,4068.38709677,0,4086.12903226,0,4153.22580645,0,4094.51612903,0,4087.41935484,0,4091.93548387,0,3776.12903226,0,4101.61290323,0,4068.06451613,0,4086.77419355,0,4346.77419355,0,4132.58064516,0,4808.70967742,0,4066.4516129,0,0,0,?
2017-11-11 16:24:21.939419,4081.29032258,0,4088.06451613,0,4174.83870968,0,4093.5483871,0,4094.19354839,0,4086.4516129,0,3770.96774194,0,4095.16129032,0,4069.35483871,0,4094.51612903,0,4327.74193548,0,4142.90322581,0,4815.48387097,0,4074.51612903,0,0,0,?
2017-11-11 16:24:21.939522,4089.03225806,0,4086.12903226,0,4189.35483871,0,4090.0,0,4092.58064516,0,4083.87096774,0,3761.61290323,0,4092.58064516,0,4068.06451613,0,4099.67741935,0,4341.29032258,0,4143.5483871,0,4818.06451613,0,4079.67741935,0,0,0,?
2017-11-11 16:24:21.939599,4087.41935484,0,4084.51612903,0,4188.06451613,0,4087.74193548,0,4086.12903226,0,4085.48387097,0,3757.09677419,0,4095.80645161,0,4065.80645161,0,4097.41935484,0,4327.41935484,0,4135.16129032,0,4813.87096774,0,4080.32258065,0,0,0,?
2017-11-11 16:24:21.939643,4089.67741935,0,4093.5483871,0,4182.58064516,0,4086.77419355,0,4084.51612903,0,4082.25806452,0,3745.48387097,0,4099.67741935,0,4114.19354839,0,4095.48387097,0,4362.25806452,0,4127.74193548,0,4814.19354839,0,4085.48387097,0,0,0,?
2017-11-11 16:24:21.939678,4096.77419355,0,4108.06451613,0,4179.67741935,0,4085.48387097,0,4089.67741935,0,4071.61290323,0,3778.38709677,0,4101.29032258,0,4113.87096774,0,4097.09677419,0,4365.48387097,0,4126.4516129,0,4821.61290323,0,4096.12903226,0,0,0,?
2017-11-11 16:24:21.939813,4094.83870968,0,4110.0,0,4174.19354839,0,4085.16129032,0,4095.16129032,0,4063.87096774,0,3778.06451613,0,4101.93548387,0,4066.12903226,0,4095.48387097,0,4323.5483871,0,4126.77419355,0,4822.58064516,0,4100.64516129,0,0,0,?
2017-11-11 16:24:21.939886,4082.58064516,0,4096.12903226,0,4167.41935484,0,4086.12903226,0,4097.41935484,0,4066.4516129,0,3748.06451613,0,4102.90322581,0,4069.67741935,0,4087.41935484,0,4371.29032258,0,4124.51612903,0,4808.70967742,0,4095.80645161,0,0,0,?
2017-11-11 16:24:21.939913,4078.06451613,0,4083.22580645,0,4173.22580645,0,4086.4516129,0,4099.03225806,0,4073.22580645,0,3760.0,0,4102.25806452,0,4071.61290323,0,4082.58064516,0,4368.38709677,0,4124.19354839,0,4845.16129032,0,4092.25806452,0,0,0,?
2017-11-11 16:24:21.939981,4089.35483871,0,4084.83870968,0,4192.58064516,0,4084.19354839,0,4098.06451613,0,4075.48387097,0,3744.19354839,0,4100.64516129,0,4069.03225806,0,4087.41935484,0,4328.70967742,0,4128.06451613,0,4844.51612903,0,4096.12903226,0,0,0,?
2017-11-11 16:24:21.939994,4097.09677419,0,4093.5483871,0,4203.87096774,0,4083.5483871,0,4090.64516129,0,4075.80645161,0,3772.58064516,0,4100.96774194,0,4113.22580645,0,4094.51612903,0,4341.61290323,0,4129.67741935,0,4850.0,0,4098.38709677,0,0,0,?
2017-11-11 16:24:21.940030,4087.41935484,0,4098.70967742,0,4192.25806452,0,4089.03225806,0,4080.0,0,4078.70967742,0,3772.58064516,0,4103.5483871,0,4107.09677419,0,4093.22580645,0,4340.0,0,4124.19354839,0,4848.06451613,0,4090.64516129,0,0,0,?
2017-11-11 16:24:21.940062,4073.22580645,0,4101.61290323,0,4171.93548387,0,4098.38709677,0,4076.77419355,0,4082.58064516,0,3785.48387097,0,4104.83870968,0,4104.83870968,0,4087.41935484,0,4333.87096774,0,4116.4516129,0,4843.5483871,0,4081.61290323,0,0,0,?
2017-11-11 16:24:21.940139,4071.29032258,0,4104.19354839,0,4164.19354839,0,4102.90322581,0,4084.51612903,0,4083.5483871,0,3786.4516129,0,4102.25806452,0,4108.06451613,0,4088.38709677,0,4342.25806452,0,4115.48387097,0,4847.41935484,0,4082.25806452,0,0,0,?
2017-11-11 16:24:21.940167,4076.12903226,0,4097.74193548,0,4167.41935484,0,4100.0,0,4092.58064516,0,4085.16129032,0,3779.35483871,0,4100.0,0,4113.87096774,0,4094.51612903,0,4353.87096774,0,4121.29032258,0,4855.16129032,0,4088.38709677,0,0,0,?
2017-11-11 16:24:21.940358,4074.51612903,0,4080.32258065,0,4169.67741935,0,4093.87096774,0,4093.22580645,0,4092.25806452,0,3782.25806452,0,4101.61290323,0,4068.06451613,0,4097.09677419,0,4344.19354839,0,4125.80645161,0,4853.87096774,0,4089.67741935,0,0,0,?
2017-11-11 16:24:21.940372,4072.58064516,0,4067.41935484,0,4172.90322581,0,4088.70967742,0,4089.03225806,0,4098.38709677,0,3789.03225806,0,4104.83870968,0,4069.35483871,0,4094.19354839,0,4369.67741935,0,4126.77419355,0,4847.41935484,0,4088.06451613,0,0,0,?
2017-11-11 16:24:21.940429,4081.93548387,0,4073.5483871,0,4186.12903226,0,4085.48387097,0,4086.4516129,0,4095.80645161,0,3778.70967742,0,4104.51612903,0,4068.06451613,0,4092.90322581,0,4360.96774194,0,4128.06451613,0,4850.64516129,0,4090.0,0,0,0,?
2017-11-11 16:24:21.940443,4094.83870968,0,4090.64516129,0,4201.61290323,0,4084.51612903,0,4084.19354839,0,4088.38709677,0,3756.12903226,0,4101.29032258,0,4066.12903226,0,4092.90322581,0,4327.09677419,0,4130.32258065,0,4811.93548387,0,4091.29032258,0,0,0,?
2017-11-11 16:24:21.940572,4094.83870968,0,4100.0,0,4203.5483871,0,4086.77419355,0,4079.35483871,0,4088.38709677,0,3748.38709677,0,4100.32258065,0,4065.48387097,0,4089.67741935,0,4344.19354839,0,4130.0,0,4817.09677419,0,4084.19354839,0,0,0,?
2017-11-11 16:24:21.940584,4087.09677419,0,4100.64516129,0,4191.93548387,0,4090.96774194,0,4080.32258065,0,4098.38709677,0,3765.16129032,0,4102.58064516,0,4065.16129032,0,4094.19354839,0,4339.35483871,0,4133.87096774,0,4813.5483871,0,4082.58064516,0,0,0,?
2017-11-11 16:24:21.940670,4087.09677419,0,4100.64516129,0,4191.93548387,0,4090.96774194,0,4080.32258065,0,4098.38709677,0,3765.16129032,0,4102.58064516,0,4065.16129032,0,4094.19354839,0,4339.35483871,0,4133.87096774,0,4813.5483871,0,4082.58064516,0,0,0,?
2017-11-11 16:24:21.940708,4098.70967742,0,4104.19354839,0,4198.38709677,0,4086.77419355,0,4087.74193548,0,4090.96774194,0,3760.32258065,0,4100.32258065,0,4064.51612903,0,4110.0,0,4338.70967742,0,4143.22580645,0,4823.22580645,0,4101.29032258,0,0,0,?
2017-11-11 16:24:21.940763,4102.90322581,0,4100.64516129,0,4199.35483871,0,4082.90322581,0,4090.64516129,0,4081.61290323,0,3765.48387097,0,4097.41935484,0,4113.5483871,0,4068.06451613,0,4332.25806452,0,4148.06451613,0,4827.41935484,0,4113.5483871,0,0,0,?
2017-11-11 16:24:21.940796,4095.80645161,0,4091.93548387,0,4191.93548387,0,4083.87096774,0,4088.38709677,0,4078.38709677,0,3789.35483871,0,4096.12903226,0,4112.90322581,0,4111.29032258,0,4367.41935484,0,4143.5483871,0,4817.74193548,0,4109.03225806,0,0,0,?
2017-11-11 16:24:21.940877,4092.25806452,0,4091.29032258,0,4189.35483871,0,4087.74193548,0,4086.77419355,0,4079.03225806,0,3757.41935484,0,4094.51612903,0,4113.22580645,0,4099.03225806,0,4361.93548387,0,4137.09677419,0,4806.4516129,0,4096.77419355,0,0,0,?
2017-11-11 16:24:21.940888,4098.70967742,0,4100.64516129,0,4195.80645161,0,4090.32258065,0,4086.77419355,0,4079.03225806,0,3753.5483871,0,4093.22580645,0,4064.83870968,0,4093.87096774,0,4325.48387097,0,4135.48387097,0,4854.83870968,0,4086.4516129,0,0,0,?
2017-11-11 16:24:21.940954,4099.67741935,0,4105.16129032,0,4194.51612903,0,4091.93548387,0,4085.80645161,0,4081.93548387,0,3745.16129032,0,4095.48387097,0,4067.41935484,0,4093.87096774,0,4337.74193548,0,4136.4516129,0,4855.80645161,0,4078.06451613,0,0,0,?
2017-11-11 16:24:21.940976,4086.77419355,0,4097.09677419,0,4176.77419355,0,4095.16129032,0,4085.16129032,0,4088.38709677,0,3753.5483871,0,4101.93548387,0,4069.03225806,0,4092.25806452,0,4329.03225806,0,4135.16129032,0,4850.96774194,0,4071.29032258,0,0,0,?
2017-11-11 16:24:21.941138,4073.87096774,0,4086.4516129,0,4159.03225806,0,4097.74193548,0,4090.64516129,0,4091.61290323,0,3767.74193548,0,4107.41935484,0,4068.70967742,0,4090.96774194,0,4363.22580645,0,4132.25806452,0,4848.38709677,0,4073.87096774,0,0,0,?
2017-11-11 16:24:21.941152,4072.58064516,0,4082.90322581,0,4157.09677419,0,4096.77419355,0,4100.64516129,0,4086.12903226,0,3770.0,0,4107.41935484,0,4068.06451613,0,4093.22580645,0,4360.96774194,0,4131.29032258,0,4806.4516129,0,4085.80645161,0,0,0,?
2017-11-11 16:24:21.941201,4072.58064516,0,4079.35483871,0,4164.19354839,0,4093.22580645,0,4104.83870968,0,4079.35483871,0,3767.41935484,0,4103.87096774,0,4068.38709677,0,4092.25806452,0,4363.87096774,0,4131.61290323,0,4815.80645161,0,4092.58064516,0,0,0,?
2017-11-11 16:24:21.941394,4065.16129032,0,4079.03225806,0,4175.16129032,0,4092.25806452,0,4079.03225806,0,4094.19354839,0,3767.41935484,0,4097.41935484,0,4064.83870968,0,4068.06451613,0,4327.41935484,0,4127.41935484,0,4847.09677419,0,4065.48387097,0,0,0,?
2017-11-11 16:24:21.941492,4065.16129032,0,4079.03225806,0,4175.16129032,0,4092.25806452,0,4079.03225806,0,4094.19354839,0,3767.41935484,0,4097.41935484,0,4064.83870968,0,4068.06451613,0,4327.41935484,0,4127.41935484,0,4847.09677419,0,4065.48387097,0,0,0,?
2017-11-11 16:24:21.941506,4065.16129032,0,4079.03225806,0,4175.16129032,0,4092.25806452,0,4079.03225806,0,4094.19354839,0,3767.41935484,0,4097.41935484,0,4064.83870968,0,4068.06451613,0,4327.41935484,0,4127.41935484,0,4847.09677419,0,4065.48387097,0,0,0,?
2017-11-11 16:24:21.941632,4080.32258065,0,4095.16129032,0,4181.61290323,0,4089.35483871,0,4078.06451613,0,4094.83870968,0,3742.25806452,0,4094.83870968,0,4112.25806452,0,4077.74193548,0,4350.64516129,0,4128.38709677,0,4848.38709677,0,4072.25806452,0,0,0,?
2017-11-11 16:24:21.941735,4083.5483871,0,4101.29032258,0,4174.19354839,0,4088.38709677,0,4080.32258065,0,4093.87096774,0,3788.06451613,0,4096.77419355,0,4110.96774194,0,4086.77419355,0,4324.51612903,0,4125.16129032,0,4842.25806452,0,4079.03225806,0,0,0,?
2017-11-11 16:24:21.941780,4079.67741935,0,4098.70967742,0,4161.93548387,0,4090.64516129,0,4086.77419355,0,4090.64516129,0,3754.51612903,0,4101.61290323,0,4110.64516129,0,4091.61290323,0,4336.77419355,0,4120.64516129,0,4830.32258065,0,4084.19354839,0,0,0,?
2017-11-11 16:24:21.941827,4086.77419355,0,4099.03225806,0,4166.12903226,0,4092.25806452,0,4097.09677419,0,4081.61290323,0,3761.29032258,0,4103.22580645,0,4110.0,0,4099.35483871,0,4348.06451613,0,4123.5483871,0,4828.70967742,0,4094.51612903,0,0,0,?
2017-11-11 16:24:21.941899,4102.90322581,0,4102.25806452,0,4186.77419355,0,4091.29032258,0,4103.22580645,0,4070.32258065,0,3745.16129032,0,4099.67741935,0,4108.70967742,0,4110.96774194,0,4360.96774194,0,4132.25806452,0,4841.61290323,0,4107.74193548,0,0,0,?
2017-11-11 16:24:21.941912,4110.0,0,4099.03225806,0,4205.16129032,0,4090.0,0,4100.0,0,4065.80645161,0,3774.83870968,0,4095.16129032,0,4107.74193548,0,4066.12903226,0,4360.0,0,4138.38709677,0,4853.5483871,0,4112.25806452,0,0,0,?
2017-11-11 16:24:21.941992,4105.16129032,0,4091.61290323,0,4161.93548387,0,4091.29032258,0,4093.5483871,0,4068.70967742,0,3763.5483871,0,4093.87096774,0,4107.74193548,0,4111.93548387,0,4344.19354839,0,4137.74193548,0,4855.16129032,0,4107.09677419,0,0,0,?
2017-11-11 16:24:21.942030,4103.87096774,0,4092.90322581,0,4165.80645161,0,4092.90322581,0,4093.5483871,0,4070.64516129,0,3753.5483871,0,4094.51612903,0,4109.03225806,0,4106.77419355,0,4338.06451613,0,4137.41935484,0,4855.48387097,0,4102.90322581,0,0,0,?
2017-11-11 16:24:21.942102,4110.96774194,0,4102.90322581,0,4168.38709677,0,4091.61290323,0,4098.70967742,0,4068.06451613,0,3744.19354839,0,4096.4516129,0,4111.93548387,0,4108.06451613,0,4352.25806452,0,4141.93548387,0,4811.29032258,0,4103.5483871,0,0,0,?
2017-11-11 16:24:21.942126,4111.29032258,0,4107.09677419,0,4209.35483871,0,4089.67741935,0,4100.32258065,0,4068.06451613,0,3754.51612903,0,4099.67741935,0,4064.51612903,0,4110.0,0,4363.22580645,0,4145.48387097,0,4814.51612903,0,4100.96774194,0,0,0,?
2017-11-11 16:24:21.942185,4093.87096774,0,4097.09677419,0,4180.32258065,0,4090.64516129,0,4091.93548387,0,4086.12903226,0,3754.19354839,0,4102.25806452,0,4068.06451613,0,4103.5483871,0,4327.41935484,0,4134.83870968,0,4851.29032258,0,4090.96774194,0,0,0,?
2017-11-11 16:24:21.942243,4093.87096774,0,4097.09677419,0,4180.32258065,0,4090.64516129,0,4091.93548387,0,4086.12903226,0,3754.19354839,0,4102.25806452,0,4068.06451613,0,4103.5483871,0,4327.41935484,0,4134.83870968,0,4851.29032258,0,4090.96774194,0,0,0,?
2017-11-11 16:24:21.942275,4100.0,0,4101.93548387,0,4187.09677419,0,4090.32258065,0,4090.0,0,4090.64516129,0,3790.0,0,4098.06451613,0,4066.77419355,0,4104.51612903,0,4368.06451613,0,4130.0,0,4807.74193548,0,4099.35483871,0,0,0,?
2017-11-11 16:24:21.942291,4103.5483871,0,4104.83870968,0,4194.51612903,0,4089.67741935,0,4085.80645161,0,4091.29032258,0,3766.4516129,0,4094.19354839,0,4064.51612903,0,4102.90322581,0,4367.09677419,0,4126.77419355,0,4818.06451613,0,4104.51612903,0,0,0,?
2017-11-11 16:24:21.942344,4091.93548387,0,4098.06451613,0,4187.09677419,0,4091.93548387,0,4079.35483871,0,4093.22580645,0,3768.38709677,0,4095.16129032,0,4113.5483871,0,4093.22580645,0,4358.38709677,0,4122.25806452,0,4815.48387097,0,4094.51612903,0,0,0,?
2017-11-11 16:24:21.942375,4079.03225806,0,4090.96774194,0,4173.87096774,0,4095.48387097,0,4077.74193548,0,4093.87096774,0,3790.64516129,0,4098.70967742,0,4114.51612903,0,4082.58064516,0,4347.09677419,0,4120.32258065,0,4853.87096774,0,4078.38709677,0,0,0,?
2017-11-11 16:24:21.942409,4080.0,0,4092.58064516,0,4170.0,0,4095.80645161,0,4083.5483871,0,4090.32258065,0,3755.48387097,0,4099.67741935,0,4067.09677419,0,4082.90322581,0,4350.96774194,0,4125.80645161,0,4848.38709677,0,4071.93548387,0,0,0,?
2017-11-11 16:24:21.942440,4086.4516129,0,4094.19354839,0,4169.35483871,0,4093.5483871,0,4089.67741935,0,4087.74193548,0,3759.03225806,0,4098.06451613,0,4069.35483871,0,4090.96774194,0,4362.90322581,0,4133.5483871,0,4850.0,0,4074.83870968,0,0,0,?
2017-11-11 16:24:21.942519,4080.96774194,0,4084.83870968,0,4160.96774194,0,4093.87096774,0,4090.32258065,0,4092.25806452,0,3768.06451613,0,4096.77419355,0,4069.03225806,0,4093.22580645,0,4361.29032258,0,4134.83870968,0,4849.67741935,0,4076.12903226,0,0,0,?
2017-11-11 16:24:21.942548,4068.70967742,0,4071.61290323,0,4151.93548387,0,4098.06451613,0,4089.35483871,0,4098.38709677,0,3780.0,0,4095.48387097,0,4066.4516129,0,4087.09677419,0,4347.74193548,0,4130.0,0,4848.38709677,0,4076.4516129,0,0,0,?
2017-11-11 16:24:21.942733,4067.09677419,0,4069.35483871,0,4158.06451613,0,4100.64516129,0,4091.93548387,0,4095.48387097,0,3776.4516129,0,4092.90322581,0,4064.51612903,0,4081.29032258,0,4346.77419355,0,4127.09677419,0,4807.09677419,0,4081.29032258,0,0,0,?
2017-11-11 16:24:21.942752,4074.83870968,0,4076.4516129,0,4173.5483871,0,4098.38709677,0,4094.19354839,0,4084.51612903,0,3758.38709677,0,4091.29032258,0,4113.87096774,0,4079.67741935,0,4364.19354839,0,4128.06451613,0,4821.61290323,0,4087.74193548,0,0,0,?
2017-11-11 16:24:21.942798,4077.09677419,0,4080.64516129,0,4180.0,0,4093.22580645,0,4090.96774194,0,4076.4516129,0,3749.03225806,0,4094.83870968,0,4114.19354839,0,4079.03225806,0,4326.77419355,0,4128.06451613,0,4823.5483871,0,4086.77419355,0,0,0,?
2017-11-11 16:24:21.942890,4074.51612903,0,4081.61290323,0,4174.83870968,0,4089.03225806,0,4085.16129032,0,4075.80645161,0,3751.61290323,0,4101.61290323,0,4065.48387097,0,4078.70967742,0,4324.51612903,0,4125.80645161,0,4810.0,0,4082.90322581,0,0,0,?
2017-11-11 16:24:21.942990,4080.64516129,0,4087.74193548,0,4173.5483871,0,4084.51612903,0,4084.19354839,0,4075.80645161,0,3743.22580645,0,4106.4516129,0,4068.38709677,0,4086.12903226,0,4322.90322581,0,4126.12903226,0,4850.0,0,4089.03225806,0,0,0,?
2017-11-11 16:24:21.943003,4094.83870968,0,4096.4516129,0,4180.32258065,0,4080.0,0,4088.06451613,0,4072.25806452,0,3770.0,0,4105.48387097,0,4071.29032258,0,4099.67741935,0,4331.29032258,0,4130.64516129,0,4853.22580645,0,4103.5483871,0,0,0,?
2017-11-11 16:24:21.943043,4099.35483871,0,4095.80645161,0,4182.58064516,0,4079.03225806,0,4089.35483871,0,4070.0,0,3757.41935484,0,4101.93548387,0,4071.93548387,0,4107.41935484,0,4336.4516129,0,4132.58064516,0,4808.06451613,0,4109.67741935,0,0,0,?
2017-11-11 16:24:21.943054,4090.32258065,0,4086.77419355,0,4176.4516129,0,4083.5483871,0,4088.70967742,0,4073.5483871,0,3771.93548387,0,4098.70967742,0,4070.32258065,0,4102.90322581,0,4328.38709677,0,4128.70967742,0,4854.83870968,0,4101.61290323,0,0,0,?
2017-11-11 16:24:21.943137,4086.77419355,0,4086.4516129,0,4175.80645161,0,4090.32258065,0,4091.61290323,0,4076.4516129,0,3790.32258065,0,4095.48387097,0,4069.03225806,0,4097.09677419,0,4324.83870968,0,4125.16129032,0,4849.35483871,0,4092.25806452,0,0,0,?
2017-11-11 16:24:21.943177,4097.09677419,0,4099.67741935,0,4187.09677419,0,4093.5483871,0,4098.70967742,0,4074.51612903,0,3788.38709677,0,4092.58064516,0,4069.03225806,0,4099.03225806,0,4338.70967742,0,4126.77419355,0,4850.96774194,0,4092.25806452,0,0,0,?
2017-11-11 16:24:21.943253,4104.51612903,0,4110.0,0,4196.12903226,0,4093.5483871,0,4101.61290323,0,4073.22580645,0,3775.16129032,0,4092.58064516,0,4070.32258065,0,4103.22580645,0,4351.93548387,0,4130.0,0,4852.58064516,0,4096.12903226,0,0,0,?
2017-11-11 16:24:21.943272,4096.4516129,0,4104.51612903,0,4193.22580645,0,4093.87096774,0,4097.09677419,0,4077.09677419,0,3769.03225806,0,4096.12903226,0,4070.96774194,0,4100.64516129,0,4343.22580645,0,4130.0,0,4845.80645161,0,4095.48387097,0,0,0,?
2017-11-11 16:24:21.943327,4085.16129032,0,4091.61290323,0,4190.32258065,0,4094.51612903,0,4090.0,0,4080.96774194,0,3764.51612903,0,4099.03225806,0,4070.64516129,0,4094.19354839,0,4325.48387097,0,4128.38709677,0,4840.32258065,0,4093.5483871,0,0,0,?
2017-11-11 16:24:21.943403,4085.16129032,0,4083.5483871,0,4197.74193548,0,4093.22580645,0,4085.16129032,0,4079.03225806,0,3751.61290323,0,4098.06451613,0,4069.67741935,0,4091.93548387,0,4323.87096774,0,4129.35483871,0,4847.74193548,0,4094.83870968,0,0,0,?
2017-11-11 16:24:21.943427,4089.03225806,0,4080.64516129,0,4204.19354839,0,4091.29032258,0,4080.32258065,0,4076.77419355,0,3746.12903226,0,4097.09677419,0,4069.03225806,0,4093.22580645,0,4334.83870968,0,4131.61290323,0,4809.35483871,0,4093.22580645,0,0,0,?
2017-11-11 16:24:21.943443,4082.90322581,0,4078.38709677,0,4195.16129032,0,4093.22580645,0,4074.83870968,0,4082.90322581,0,3766.4516129,0,4100.0,0,4069.35483871,0,4091.61290323,0,4333.87096774,0,4130.64516129,0,4809.35483871,0,4084.19354839,0,0,0,?
2017-11-11 16:24:21.943517,4074.51612903,0,4082.90322581,0,4178.70967742,0,4098.38709677,0,4073.87096774,0,4094.51612903,0,3744.19354839,0,4104.51612903,0,4070.64516129,0,4087.41935484,0,4368.70967742,0,4129.35483871,0,4850.32258065,0,4077.74193548,0,0,0,?
2017-11-11 16:24:21.943530,4076.77419355,0,4096.77419355,0,4172.25806452,0,4100.96774194,0,4079.35483871,0,4101.93548387,0,3747.09677419,0,4105.16129032,0,4071.61290323,0,4088.70967742,0,4359.67741935,0,4132.25806452,0,4848.06451613,0,4083.5483871,0,0,0,?
2017-11-11 16:24:21.943554,4083.87096774,0,4106.12903226,0,4173.87096774,0,4099.03225806,0,4083.5483871,0,4103.5483871,0,3777.09677419,0,4101.61290323,0,4070.32258065,0,4094.19354839,0,4362.90322581,0,4137.41935484,0,4854.83870968,0,4094.19354839,0,0,0,?
2017-11-11 16:24:21.943605,4080.96774194,0,4097.41935484,0,4170.64516129,0,4096.12903226,0,4080.0,0,4104.19354839,0,3765.48387097,0,4098.70967742,0,4067.74193548,0,4096.4516129,0,4361.93548387,0,4139.03225806,0,4807.74193548,0,4095.16129032,0,0,0,?
2017-11-11 16:24:21.943639,4075.16129032,0,4080.32258065,0,4165.16129032,0,4095.80645161,0,4073.87096774,0,4103.5483871,0,3773.22580645,0,4098.38709677,0,4114.51612903,0,4096.12903226,0,4354.19354839,0,4137.09677419,0,4854.19354839,0,4087.09677419,0,0,0,?
2017-11-11 16:24:21.943651,4083.87096774,0,4075.48387097,0,4173.5483871,0,4096.12903226,0,4074.51612903,0,4095.48387097,0,3778.70967742,0,4098.06451613,0,4112.25806452,0,4102.25806452,0,4357.09677419,0,4137.74193548,0,4856.12903226,0,4084.19354839,0,0,0,?
2017-11-11 16:24:21.943692,4104.19354839,0,4085.48387097,0,4191.93548387,0,4094.19354839,0,4081.93548387,0,4081.29032258,0,3772.58064516,0,4096.4516129,0,4111.61290323,0,4113.5483871,0,4324.19354839,0,4142.25806452,0,4816.4516129,0,4090.0,0,0,0,?
2017-11-11 16:24:21.943706,4111.93548387,0,4095.48387097,0,4199.67741935,0,4092.25806452,0,4088.70967742,0,4070.64516129,0,3772.25806452,0,4095.48387097,0,4113.22580645,0,4066.4516129,0,4333.87096774,0,4144.51612903,0,4822.90322581,0,4094.83870968,0,0,0,?
2017-11-11 16:24:21.943819,4099.67741935,0,4098.38709677,0,4189.35483871,0,4092.25806452,0,4092.58064516,0,4069.35483871,0,3788.70967742,0,4095.16129032,0,4065.80645161,0,4107.09677419,0,4323.87096774,0,4141.93548387,0,4818.70967742,0,4093.87096774,0,0,0,?
2017-11-11 16:24:21.943843,4085.48387097,0,4100.96774194,0,4178.06451613,0,4092.58064516,0,4097.09677419,0,4070.96774194,0,3755.80645161,0,4093.22580645,0,4068.06451613,0,4096.12903226,0,4363.22580645,0,4140.0,0,4815.48387097,0,4095.16129032,0,0,0,?
2017-11-11 16:24:21.943963,4074.51612903,0,4097.41935484,0,4179.03225806,0,4089.03225806,0,4099.03225806,0,4072.25806452,0,3770.96774194,0,4091.93548387,0,4066.77419355,0,4096.12903226,0,4372.25806452,0,4141.93548387,0,4820.0,0,4100.0,0,0,0,?
2017-11-11 16:24:21.943999,4074.51612903,0,4097.41935484,0,4179.03225806,0,4089.03225806,0,4099.03225806,0,4072.25806452,0,3770.96774194,0,4091.93548387,0,4066.77419355,0,4096.12903226,0,4372.25806452,0,4141.93548387,0,4820.0,0,4100.0,0,0,0,?
2017-11-11 16:24:21.944079,4064.19354839,0,4082.58064516,0,4174.51612903,0,4090.32258065,0,4093.5483871,0,4077.74193548,0,3783.5483871,0,4098.70967742,0,4064.83870968,0,4090.96774194,0,4361.29032258,0,4135.48387097,0,4808.70967742,0,4090.64516129,0,0,0,?
2017-11-11 16:24:21.944091,4064.51612903,0,4075.80645161,0,4172.58064516,0,4092.25806452,0,4090.64516129,0,4079.67741935,0,3777.74193548,0,4105.48387097,0,4113.87096774,0,4082.90322581,0,4348.38709677,0,4127.74193548,0,4848.38709677,0,4083.87096774,0,0,0,?
2017-11-11 16:24:21.944119,4097.74193548,0,4096.77419355,0,4187.09677419,0,4086.4516129,0,4092.25806452,0,4065.48387097,0,3761.93548387,0,4102.58064516,0,4064.83870968,0,4078.70967742,0,4372.58064516,0,4126.12903226,0,4810.0,0,4090.96774194,0,0,0,?
2017-11-11 16:24:21.944134,4097.74193548,0,4096.77419355,0,4187.09677419,0,4086.4516129,0,4092.25806452,0,4065.48387097,0,3761.93548387,0,4102.58064516,0,4064.83870968,0,4078.70967742,0,4372.58064516,0,4126.12903226,0,4810.0,0,4090.96774194,0,0,0,?
2017-11-11 16:24:21.944268,4092.90322581,0,4098.38709677,0,4180.64516129,0,4085.80645161,0,4089.03225806,0,4066.77419355,0,3768.38709677,0,4098.38709677,0,4065.80645161,0,4074.51612903,0,4326.4516129,0,4123.87096774,0,4856.4516129,0,4085.16129032,0,0,0,?
2017-11-11 16:24:21.944374,4078.06451613,0,4095.16129032,0,4170.32258065,0,4089.67741935,0,4088.06451613,0,4076.12903226,0,3750.96774194,0,4094.83870968,0,4066.12903226,0,4070.64516129,0,4369.03225806,0,4120.32258065,0,4842.90322581,0,4076.77419355,0,0,0,?
2017-11-11 16:24:21.944434,4072.58064516,0,4096.12903226,0,4170.96774194,0,4092.90322581,0,4092.25806452,0,4084.83870968,0,3770.64516129,0,4091.93548387,0,4065.80645161,0,4075.48387097,0,4370.0,0,4120.64516129,0,4836.12903226,0,4078.70967742,0,0,0,?
2017-11-11 16:24:21.944456,4075.16129032,0,4096.4516129,0,4176.4516129,0,4092.58064516,0,4094.19354839,0,4088.70967742,0,3763.87096774,0,4092.25806452,0,4065.48387097,0,4084.51612903,0,4330.64516129,0,4122.90322581,0,4839.03225806,0,4087.09677419,0,0,0,?
2017-11-11 16:24:21.944499,4073.87096774,0,4088.38709677,0,4173.5483871,0,4091.61290323,0,4088.70967742,0,4090.64516129,0,3747.74193548,0,4097.74193548,0,4064.83870968,0,4085.80645161,0,4332.58064516,0,4120.32258065,0,4841.93548387,0,4089.35483871,0,0,0,?
2017-11-11 16:24:21.944576,4072.90322581,0,4079.03225806,0,4167.41935484,0,4092.90322581,0,4082.25806452,0,4089.03225806,0,3782.25806452,0,4104.19354839,0,4114.19354839,0,4080.32258065,0,4325.16129032,0,4116.12903226,0,4844.19354839,0,4086.12903226,0,0,0,?
2017-11-11 16:24:21.944635,4083.87096774,0,4081.93548387,0,4174.83870968,0,4094.19354839,0,4081.93548387,0,4080.96774194,0,3760.64516129,0,4106.4516129,0,4113.5483871,0,4080.32258065,0,4331.29032258,0,4119.35483871,0,4855.80645161,0,4086.77419355,0,0,0,?
2017-11-11 16:24:21.944682,4100.96774194,0,4093.5483871,0,4194.19354839,0,4092.58064516,0,4087.09677419,0,4071.93548387,0,3742.25806452,0,4103.22580645,0,4112.90322581,0,4090.32258065,0,4353.87096774,0,4130.64516129,0,4822.58064516,0,4092.58064516,0,0,0,?
2017-11-11 16:24:21.944789,4104.83870968,0,4099.03225806,0,4208.38709677,0,4088.38709677,0,4089.67741935,0,4072.58064516,0,3748.06451613,0,4100.64516129,0,4112.90322581,0,4100.64516129,0,4367.74193548,0,4140.32258065,0,4828.38709677,0,4095.80645161,0,0,0,?
2017-11-11 16:24:21.944838,4095.80645161,0,4096.77419355,0,4211.29032258,0,4084.19354839,0,4089.03225806,0,4082.58064516,0,3772.58064516,0,4100.0,0,4113.22580645,0,4104.51612903,0,4358.38709677,0,4140.96774194,0,4818.38709677,0,4096.77419355,0,0,0,?
2017-11-11 16:24:21.944898,4092.58064516,0,4098.38709677,0,4161.61290323,0,4079.03225806,0,4088.38709677,0,4088.38709677,0,3782.90322581,0,4099.35483871,0,4113.5483871,0,4107.74193548,0,4344.51612903,0,4137.09677419,0,4810.96774194,0,4104.19354839,0,0,0,?
2017-11-11 16:24:21.944932,4100.64516129,0,4106.12903226,0,4161.61290323,0,4075.16129032,0,4087.41935484,0,4083.22580645,0,3769.03225806,0,4097.09677419,0,4114.19354839,0,4114.51612903,0,4341.93548387,0,4134.51612903,0,4816.4516129,0,4113.87096774,0,0,0,?
2017-11-11 16:24:21.945035,4104.83870968,0,4108.70967742,0,4200.64516129,0,4078.38709677,0,4082.58064516,0,4075.48387097,0,3760.0,0,4096.77419355,0,4064.51612903,0,4067.74193548,0,4340.32258065,0,4131.93548387,0,4822.25806452,0,4110.64516129,0,0,0,?
2017-11-11 16:24:21.945048,4098.38709677,0,4101.61290323,0,4180.0,0,4090.0,0,4077.74193548,0,4075.80645161,0,3776.12903226,0,4098.38709677,0,4064.51612903,0,4113.5483871,0,4326.4516129,0,4127.74193548,0,4816.4516129,0,4092.25806452,0,0,0,?
2017-11-11 16:24:21.945091,4094.83870968,0,4095.48387097,0,4168.70967742,0,4101.93548387,0,4081.29032258,0,4082.25806452,0,3744.51612903,0,4099.03225806,0,4064.51612903,0,4107.41935484,0,4363.22580645,0,4125.80645161,0,4808.06451613,0,4076.4516129,0,0,0,?
2017-11-11 16:24:21.945110,4100.96774194,0,4095.80645161,0,4175.48387097,0,4104.19354839,0,4092.58064516,0,4088.06451613,0,3791.29032258,0,4096.77419355,0,4065.16129032,0,4107.09677419,0,4362.90322581,0,4129.35483871,0,4810.0,0,4076.12903226,0,0,0,?
2017-11-11 16:24:21.945309,4102.90322581,0,4093.22580645,0,4185.16129032,0,4097.41935484,0,4100.32258065,0,4090.96774194,0,3778.70967742,0,4095.48387097,0,4066.4516129,0,4107.09677419,0,4363.22580645,0,4133.22580645,0,4816.4516129,0,4083.5483871,0,0,0,?
2017-11-11 16:24:21.945322,4090.0,0,4081.61290323,0,4182.58064516,0,4089.67741935,0,4099.35483871,0,4092.90322581,0,3784.83870968,0,4097.74193548,0,4068.06451613,0,4101.61290323,0,4347.41935484,0,4131.61290323,0,4813.5483871,0,4084.83870968,0,0,0,?
2017-11-11 16:24:21.945420,4075.48387097,0,4077.09677419,0,4177.74193548,0,4088.06451613,0,4091.61290323,0,4082.90322581,0,3772.58064516,0,4099.35483871,0,4070.0,0,4097.41935484,0,4334.51612903,0,4128.38709677,0,4855.48387097,0,4075.80645161,0,0,0,?
2017-11-11 16:24:21.945484,4075.48387097,0,4077.09677419,0,4177.74193548,0,4088.06451613,0,4091.61290323,0,4082.90322581,0,3772.58064516,0,4099.35483871,0,4070.0,0,4097.41935484,0,4334.51612903,0,4128.38709677,0,4855.48387097,0,4075.80645161,0,0,0,?
2017-11-11 16:24:21.945559,4079.35483871,0,4084.51612903,0,4179.35483871,0,4090.96774194,0,4088.70967742,0,4076.4516129,0,3782.58064516,0,4097.41935484,0,4070.0,0,4100.0,0,4355.48387097,0,4130.96774194,0,4807.74193548,0,4070.0,0,0,0,?
2017-11-11 16:24:21.945586,4073.5483871,0,4082.25806452,0,4168.70967742,0,4094.83870968,0,4085.16129032,0,4079.67741935,0,3794.51612903,0,4097.74193548,0,4068.70967742,0,4092.58064516,0,4362.90322581,0,4129.35483871,0,4852.90322581,0,4060.96774194,0,0,0,?
2017-11-11 16:24:21.945634,4064.19354839,0,4074.51612903,0,4152.90322581,0,4097.09677419,0,4085.80645161,0,4087.74193548,0,3796.12903226,0,4099.67741935,0,4066.77419355,0,4078.38709677,0,4351.61290323,0,4124.19354839,0,4843.87096774,0,4058.38709677,0,0,0,?
2017-11-11 16:24:21.945646,4067.09677419,0,4073.87096774,0,4149.67741935,0,4093.22580645,0,4093.22580645,0,4089.35483871,0,3766.12903226,0,4099.03225806,0,4114.51612903,0,4071.61290323,0,4346.77419355,0,4121.61290323,0,4845.48387097,0,4072.58064516,0,0,0,?
2017-11-11 16:24:21.945684,4078.06451613,0,4078.38709677,0,4158.06451613,0,4084.83870968,0,4099.03225806,0,4083.22580645,0,3769.35483871,0,4096.4516129,0,4112.90322581,0,4077.09677419,0,4360.32258065,0,4123.5483871,0,4806.77419355,0,4093.87096774,0,0,0,?
2017-11-11 16:24:21.945716,4081.93548387,0,4079.03225806,0,4166.12903226,0,4079.03225806,0,4094.83870968,0,4077.09677419,0,3744.51612903,0,4095.80645161,0,4113.22580645,0,4086.4516129,0,4327.09677419,0,4124.51612903,0,4810.96774194,0,4102.90322581,0,0,0,?
2017-11-11 16:24:21.945773,4081.29032258,0,4079.03225806,0,4173.22580645,0,4080.32258065,0,4085.16129032,0,4075.16129032,0,3755.16129032,0,4097.74193548,0,4064.83870968,0,4094.19354839,0,4338.06451613,0,4123.87096774,0,4854.19354839,0,4097.09677419,0,0,0,?
2017-11-11 16:24:21.945820,4091.29032258,0,4089.67741935,0,4190.0,0,4085.16129032,0,4080.64516129,0,4072.90322581,0,3772.90322581,0,4099.03225806,0,4066.4516129,0,4103.5483871,0,4352.58064516,0,4125.80645161,0,4850.0,0,4091.61290323,0,0,0,?
2017-11-11 16:24:21.945915,4108.70967742,0,4107.09677419,0,4210.64516129,0,4088.38709677,0,4084.51612903,0,4068.06451613,0,3775.48387097,0,4098.70967742,0,4067.09677419,0,4113.5483871,0,4370.64516129,0,4131.93548387,0,4806.4516129,0,4095.48387097,0,0,0,?
2017-11-11 16:24:21.945930,4112.90322581,0,4114.51612903,0,4165.48387097,0,4089.67741935,0,4091.29032258,0,4067.41935484,0,3772.58064516,0,4099.67741935,0,4066.4516129,0,4114.51612903,0,4373.5483871,0,4136.4516129,0,4811.29032258,0,4101.61290323,0,0,0,?
2017-11-11 16:24:21.946046,4099.35483871,0,4106.77419355,0,4200.64516129,0,4090.32258065,0,4098.06451613,0,4072.25806452,0,3776.12903226,0,4102.90322581,0,4065.48387097,0,4104.83870968,0,4356.4516129,0,4136.77419355,0,4856.12903226,0,4103.87096774,0,0,0,?
2017-11-11 16:24:21.946059,4088.70967742,0,4098.06451613,0,4186.12903226,0,4089.35483871,0,4104.51612903,0,4075.80645161,0,3775.16129032,0,4104.83870968,0,4064.83870968,0,4097.74193548,0,4343.87096774,0,4136.77419355,0,4850.32258065,0,4106.4516129,0,0,0,?
2017-11-11 16:24:21.946094,4094.19354839,0,4096.77419355,0,4187.09677419,0,4086.4516129,0,4106.12903226,0,4073.87096774,0,3764.51612903,0,4103.87096774,0,4065.16129032,0,4102.25806452,0,4353.5483871,0,4139.35483871,0,4853.5483871,0,4110.32258065,0,0,0,?
2017-11-11 16:24:21.946123,4102.58064516,0,4094.83870968,0,4193.87096774,0,4084.83870968,0,4098.38709677,0,4072.58064516,0,3761.61290323,0,4101.61290323,0,4065.48387097,0,4109.35483871,0,4364.83870968,0,4139.35483871,0,4807.09677419,0,4106.77419355,0,0,0,?
2017-11-11 16:24:21.946210,4101.29032258,0,4088.70967742,0,4195.16129032,0,4087.74193548,0,4085.16129032,0,4079.03225806,0,3777.09677419,0,4100.32258065,0,4065.80645161,0,4105.48387097,0,4353.22580645,0,4131.93548387,0,4852.25806452,0,4094.51612903,0,0,0,?
2017-11-11 16:24:21.946228,4098.06451613,0,4086.77419355,0,4196.12903226,0,4092.90322581,0,4078.06451613,0,4088.38709677,0,3788.70967742,0,4099.03225806,0,4066.12903226,0,4093.87096774,0,4329.03225806,0,4122.25806452,0,4845.80645161,0,4086.12903226,0,0,0,?
2017-11-11 16:24:21.946261,4100.64516129,0,4095.48387097,0,4201.29032258,0,4094.83870968,0,4080.96774194,0,4094.19354839,0,3778.38709677,0,4097.41935484,0,4067.09677419,0,4086.77419355,0,4370.0,0,4119.35483871,0,4850.32258065,0,4090.64516129,0,0,0,?
2017-11-11 16:24:21.946356,4099.03225806,0,4102.58064516,0,4198.70967742,0,4092.25806452,0,4086.12903226,0,4096.77419355,0,3765.48387097,0,4097.74193548,0,4069.03225806,0,4088.06451613,0,4324.83870968,0,4122.25806452,0,4808.38709677,0,4098.38709677,0,0,0,?
2017-11-11 16:24:21.946414,4084.51612903,0,4098.38709677,0,4180.64516129,0,4090.0,0,4085.16129032,0,4100.64516129,0,3780.64516129,0,4102.58064516,0,4070.32258065,0,4092.25806452,0,4371.29032258,0,4125.80645161,0,4806.4516129,0,4096.4516129,0,0,0,?
2017-11-11 16:24:21.946434,4070.32258065,0,4089.67741935,0,4163.5483871,0,4090.0,0,4081.29032258,0,4102.58064516,0,3762.58064516,0,4106.12903226,0,4069.67741935,0,4099.35483871,0,4355.48387097,0,4128.38709677,0,4846.77419355,0,4087.74193548,0,0,0,?
2017-11-11 16:24:21.946586,4073.22580645,0,4087.09677419,0,4166.4516129,0,4090.96774194,0,4078.70967742,0,4097.41935484,0,3774.83870968,0,4103.22580645,0,4067.09677419,0,4110.0,0,4344.51612903,0,4131.93548387,0,4844.19354839,0,4083.22580645,0,0,0,?
2017-11-11 16:24:21.946619,4085.80645161,0,4086.12903226,0,4181.61290323,0,4092.25806452,0,4077.09677419,0,4089.67741935,0,3758.06451613,0,4096.12903226,0,4064.83870968,0,4066.4516129,0,4342.58064516,0,4133.5483871,0,4850.64516129,0,4080.32258065,0,0,0,?
2017-11-11 16:24:21.946659,4088.70967742,0,4078.70967742,0,4185.48387097,0,4095.80645161,0,4075.48387097,0,4088.06451613,0,3789.35483871,0,4092.58064516,0,4064.83870968,0,4110.64516129,0,4338.38709677,0,4130.0,0,4854.83870968,0,4070.96774194,0,0,0,?
2017-11-11 16:24:21.946675,4082.90322581,0,4071.61290323,0,4175.16129032,0,4100.64516129,0,4077.74193548,0,4090.64516129,0,3785.48387097,0,4095.16129032,0,4067.74193548,0,4096.12903226,0,4335.80645161,0,4124.83870968,0,4854.83870968,0,4060.96774194,0,0,0,?
2017-11-11 16:24:21.946737,4092.58064516,0,4092.58064516,0,4170.0,0,4095.80645161,0,4097.09677419,0,4076.77419355,0,3791.93548387,0,4098.70967742,0,4070.96774194,0,4098.06451613,0,4338.70967742,0,4135.48387097,0,4821.93548387,0,4080.0,0,0,0,?
2017-11-11 16:24:21.946775,4092.58064516,0,4092.58064516,0,4170.0,0,4095.80645161,0,4097.09677419,0,4076.77419355,0,3791.93548387,0,4098.70967742,0,4070.96774194,0,4098.06451613,0,4338.70967742,0,4135.48387097,0,4821.93548387,0,4080.0,0,0,0,?
2017-11-11 16:24:21.946878,4079.67741935,0,4090.0,0,4171.29032258,0,4086.12903226,0,4093.5483871,0,4067.41935484,0,3777.09677419,0,4093.22580645,0,4065.16129032,0,4104.19354839,0,4340.64516129,0,4136.12903226,0,4813.22580645,0,4097.74193548,0,0,0,?
2017-11-11 16:24:21.946917,4079.67741935,0,4090.0,0,4171.29032258,0,4086.12903226,0,4093.5483871,0,4067.41935484,0,3777.09677419,0,4093.22580645,0,4065.16129032,0,4104.19354839,0,4340.64516129,0,4136.12903226,0,4813.22580645,0,4097.74193548,0,0,0,?
2017-11-11 16:24:21.946966,4078.38709677,0,4084.51612903,0,4178.70967742,0,4085.48387097,0,4090.32258065,0,4070.96774194,0,3773.5483871,0,4090.0,0,4113.5483871,0,4096.4516129,0,4362.58064516,0,4128.70967742,0,4854.83870968,0,4099.03225806,0,0,0,?
2017-11-11 16:24:21.947091,4093.22580645,0,4087.09677419,0,4192.58064516,0,4084.51612903,0,4091.93548387,0,4072.90322581,0,3791.29032258,0,4088.70967742,0,4114.19354839,0,4091.93548387,0,4349.67741935,0,4125.80645161,0,4809.03225806,0,4101.61290323,0,0,0,?
2017-11-11 16:24:21.947127,4105.48387097,0,4087.09677419,0,4193.5483871,0,4084.19354839,0,4093.5483871,0,4077.09677419,0,3761.61290323,0,4092.90322581,0,4066.77419355,0,4089.35483871,0,4350.96774194,0,4125.16129032,0,4815.48387097,0,4098.70967742,0,0,0,?
2017-11-11 16:24:21.947159,4100.64516129,0,4081.93548387,0,4175.80645161,0,4087.41935484,0,4092.58064516,0,4085.16129032,0,3762.25806452,0,4101.29032258,0,4070.0,0,4087.09677419,0,4354.51612903,0,4124.19354839,0,4810.96774194,0,4089.35483871,0,0,0,?
2017-11-11 16:24:21.947317,4090.32258065,0,4083.5483871,0,4161.29032258,0,4091.93548387,0,4092.90322581,0,4090.64516129,0,3778.38709677,0,4106.12903226,0,4070.96774194,0,4090.64516129,0,4365.48387097,0,4124.83870968,0,4853.22580645,0,4086.12903226,0,0,0,?
2017-11-11 16:24:21.947335,4086.77419355,0,4096.12903226,0,4168.06451613,0,4093.5483871,0,4095.16129032,0,4087.74193548,0,3784.19354839,0,4103.22580645,0,4069.03225806,0,4100.96774194,0,4339.03225806,0,4128.38709677,0,4853.87096774,0,4094.83870968,0,0,0,?
2017-11-11 16:24:21.947469,4077.09677419,0,4098.38709677,0,4196.4516129,0,4093.22580645,0,4087.09677419,0,4084.19354839,0,3743.87096774,0,4095.48387097,0,4064.83870968,0,4099.67741935,0,4346.77419355,0,4122.25806452,0,4853.22580645,0,4095.16129032,0,0,0,?
2017-11-11 16:24:21.947489,4077.09677419,0,4098.38709677,0,4196.4516129,0,4093.22580645,0,4087.09677419,0,4084.19354839,0,3743.87096774,0,4095.48387097,0,4064.83870968,0,4099.67741935,0,4346.77419355,0,4122.25806452,0,4853.22580645,0,4095.16129032,0,0,0,?
2017-11-11 16:24:21.947659,4074.19354839,0,4085.48387097,0,4195.16129032,0,4097.09677419,0,4082.90322581,0,4088.38709677,0,3755.48387097,0,4097.09677419,0,4065.48387097,0,4085.16129032,0,4325.48387097,0,4113.5483871,0,4846.12903226,0,4079.03225806,0,0,0,?
2017-11-11 16:24:21.947702,4085.16129032,0,4080.32258065,0,4191.29032258,0,4099.67741935,0,4085.16129032,0,4087.09677419,0,3749.35483871,0,4099.35483871,0,4066.4516129,0,4078.70967742,0,4323.87096774,0,4112.25806452,0,4850.0,0,4068.06451613,0,0,0,?
2017-11-11 16:24:21.947737,4097.41935484,0,4081.61290323,0,4185.16129032,0,4099.03225806,0,4088.70967742,0,4082.90322581,0,3783.5483871,0,4100.64516129,0,4065.48387097,0,4083.22580645,0,4341.93548387,0,4117.09677419,0,4809.35483871,0,4065.48387097,0,0,0,?
2017-11-11 16:24:21.947762,4092.58064516,0,4080.0,0,4172.90322581,0,4097.09677419,0,4088.38709677,0,4084.51612903,0,3780.64516129,0,4102.58064516,0,4113.22580645,0,4089.35483871,0,4350.96774194,0,4120.64516129,0,4809.35483871,0,4065.80645161,0,0,0,?
2017-11-11 16:24:21.947875,4079.35483871,0,4079.67741935,0,4167.09677419,0,4094.83870968,0,4087.09677419,0,4091.93548387,0,3788.38709677,0,4104.19354839,0,4110.64516129,0,4093.22580645,0,4339.67741935,0,4120.96774194,0,4850.64516129,0,4071.93548387,0,0,0,?
2017-11-11 16:24:21.947924,4079.03225806,0,4087.74193548,0,4180.96774194,0,4090.32258065,0,4088.70967742,0,4096.12903226,0,3783.5483871,0,4101.93548387,0,4109.67741935,0,4099.35483871,0,4327.74193548,0,4123.5483871,0,4850.0,0,4089.03225806,0,0,0,?
2017-11-11 16:24:21.948089,4092.25806452,0,4097.09677419,0,4204.83870968,0,4083.87096774,0,4089.67741935,0,4093.87096774,0,3765.48387097,0,4098.06451613,0,4110.32258065,0,4106.77419355,0,4328.06451613,0,4129.03225806,0,4810.64516129,0,4108.38709677,0,0,0,?
2017-11-11 16:24:21.948103,4100.96774194,0,4095.48387097,0,4164.51612903,0,4081.61290323,0,4084.51612903,0,4091.29032258,0,3760.0,0,4096.77419355,0,4112.58064516,0,4109.03225806,0,4327.74193548,0,4130.96774194,0,4818.06451613,0,4112.58064516,0,0,0,?
2017-11-11 16:24:21.948260,4099.35483871,0,4087.09677419,0,4205.80645161,0,4085.48387097,0,4078.38709677,0,4090.0,0,3772.90322581,0,4098.70967742,0,4114.19354839,0,4106.4516129,0,4369.35483871,0,4127.74193548,0,4814.51612903,0,4100.64516129,0,0,0,?
2017-11-11 16:24:21.948280,4100.32258065,0,4088.06451613,0,4195.80645161,0,4091.29032258,0,4080.64516129,0,4084.83870968,0,3779.35483871,0,4100.32258065,0,4114.51612903,0,4108.70967742,0,4364.83870968,0,4125.48387097,0,4812.58064516,0,4088.70967742,0,0,0,?
2017-11-11 16:24:21.948354,4101.29032258,0,4103.5483871,0,4187.41935484,0,4091.61290323,0,4095.80645161,0,4069.03225806,0,3765.80645161,0,4100.0,0,4113.5483871,0,4069.67741935,0,4368.38709677,0,4129.67741935,0,4823.5483871,0,4089.03225806,0,0,0,?
2017-11-11 16:24:21.948365,4101.29032258,0,4103.5483871,0,4187.41935484,0,4091.61290323,0,4095.80645161,0,4069.03225806,0,3765.80645161,0,4100.0,0,4113.5483871,0,4069.67741935,0,4368.38709677,0,4129.67741935,0,4823.5483871,0,4089.03225806,0,0,0,?
2017-11-11 16:24:21.948493,4086.12903226,0,4094.51612903,0,4175.16129032,0,4088.70967742,0,4095.48387097,0,4072.90322581,0,3787.74193548,0,4101.29032258,0,4064.51612903,0,4110.0,0,4352.58064516,0,4127.41935484,0,4815.48387097,0,4087.74193548,0,0,0,?
2017-11-11 16:24:21.948509,4080.0,0,4082.90322581,0,4170.64516129,0,4085.48387097,0,4094.51612903,0,4080.0,0,3765.16129032,0,4099.67741935,0,4066.77419355,0,4097.41935484,0,4345.16129032,0,4124.19354839,0,4855.48387097,0,4087.74193548,0,0,0,?
2017-11-11 16:24:21.948536,4090.0,0,4078.06451613,0,4179.67741935,0,4082.58064516,0,4093.87096774,0,4082.90322581,0,3774.51612903,0,4094.51612903,0,4068.06451613,0,4093.87096774,0,4363.22580645,0,4124.19354839,0,4854.19354839,0,4091.29032258,0,0,0,?
2017-11-11 16:24:21.948558,4098.06451613,0,4075.16129032,0,4188.06451613,0,4084.51612903,0,4090.64516129,0,4084.51612903,0,3771.93548387,0,4090.32258065,0,4067.09677419,0,4094.83870968,0,4334.19354839,0,4123.5483871,0,4856.12903226,0,4088.70967742,0,0,0,?
2017-11-11 16:24:21.948762,4089.03225806,0,4070.64516129,0,4180.96774194,0,4094.19354839,0,4084.83870968,0,4088.70967742,0,3771.29032258,0,4090.96774194,0,4064.83870968,0,4089.03225806,0,4329.03225806,0,4119.03225806,0,4851.61290323,0,4075.80645161,0,0,0,?
2017-11-11 16:24:21.948783,4075.48387097,0,4071.61290323,0,4168.06451613,0,4107.09677419,0,4084.19354839,0,4090.64516129,0,3763.87096774,0,4095.16129032,0,4112.25806452,0,4078.38709677,0,4354.83870968,0,4115.48387097,0,4848.06451613,0,4066.12903226,0,0,0,?
2017-11-11 16:24:21.948814,4072.90322581,0,4081.29032258,0,4163.87096774,0,4112.90322581,0,4090.64516129,0,4084.19354839,0,3790.64516129,0,4099.35483871,0,4110.64516129,0,4072.25806452,0,4341.93548387,0,4119.03225806,0,4856.12903226,0,4071.93548387,0,0,0,?
2017-11-11 16:24:21.948840,4076.4516129,0,4087.09677419,0,4163.5483871,0,4109.03225806,0,4096.77419355,0,4074.51612903,0,3773.5483871,0,4103.5483871,0,4111.93548387,0,4072.90322581,0,4347.74193548,0,4125.80645161,0,4817.09677419,0,4085.48387097,0,0,0,?
2017-11-11 16:24:21.948879,4072.90322581,0,4078.70967742,0,4158.38709677,0,4101.29032258,0,4096.77419355,0,4072.58064516,0,3790.0,0,4107.09677419,0,4114.51612903,0,4073.87096774,0,4354.51612903,0,4126.4516129,0,4814.51612903,0,4090.64516129,0,0,0,?
2017-11-11 16:24:21.948920,4068.70967742,0,4066.4516129,0,4155.48387097,0,4094.19354839,0,4094.19354839,0,4079.35483871,0,3774.19354839,0,4107.74193548,0,4067.09677419,0,4076.77419355,0,4358.38709677,0,4120.32258065,0,4850.32258065,0,4086.77419355,0,0,0,?
2017-11-11 16:24:21.948948,4076.4516129,0,4065.80645161,0,4166.4516129,0,4087.74193548,0,4092.58064516,0,4087.41935484,0,3782.25806452,0,4101.93548387,0,4068.70967742,0,4087.09677419,0,4322.90322581,0,4115.80645161,0,4841.61290323,0,4083.5483871,0,0,0,?
2017-11-11 16:24:21.949151,4089.35483871,0,4074.83870968,0,4182.25806452,0,4083.5483871,0,4088.70967742,0,4091.61290323,0,3752.25806452,0,4094.83870968,0,4067.09677419,0,4100.64516129,0,4346.77419355,0,4117.41935484,0,4844.51612903,0,4083.5483871,0,0,0,?
2017-11-11 16:24:21.949349,4089.03225806,0,4082.25806452,0,4184.51612903,0,4085.48387097,0,4080.96774194,0,4093.22580645,0,3764.51612903,0,4094.19354839,0,4113.22580645,0,4105.16129032,0,4358.06451613,0,4121.93548387,0,4848.06451613,0,4081.61290323,0,0,0,?
2017-11-11 16:24:21.949422,4079.67741935,0,4086.77419355,0,4173.87096774,0,4093.5483871,0,4077.09677419,0,4089.67741935,0,3744.19354839,0,4100.0,0,4108.70967742,0,4100.0,0,4353.5483871,0,4127.74193548,0,4849.35483871,0,4081.29032258,0,0,0,?
2017-11-11 16:24:21.949476,4081.29032258,0,4097.09677419,0,4170.96774194,0,4100.32258065,0,4084.83870968,0,4077.41935484,0,3738.70967742,0,4105.16129032,0,4106.4516129,0,4099.03225806,0,4355.16129032,0,4135.80645161,0,4806.77419355,0,4090.64516129,0,0,0,?
2017-11-11 16:24:21.949582,4095.80645161,0,4108.70967742,0,4183.5483871,0,4100.0,0,4100.0,0,4062.25806452,0,3742.90322581,0,4103.87096774,0,4109.03225806,0,4107.74193548,0,4370.0,0,4143.87096774,0,4822.25806452,0,4106.4516129,0,0,0,?
2017-11-11 16:24:21.949656,4105.16129032,0,4108.38709677,0,4198.38709677,0,4094.19354839,0,4109.03225806,0,4057.41935484,0,3761.61290323,0,4099.67741935,0,4114.51612903,0,4065.48387097,0,4374.19354839,0,4144.51612903,0,4829.67741935,0,4113.5483871,0,0,0,?
2017-11-11 16:24:21.949686,4102.58064516,0,4097.09677419,0,4207.09677419,0,4088.06451613,0,4106.4516129,0,4067.74193548,0,3784.19354839,0,4095.80645161,0,4069.03225806,0,4113.22580645,0,4352.90322581,0,4138.06451613,0,4820.32258065,0,4108.06451613,0,0,0,?
2017-11-11 16:24:21.949737,4101.93548387,0,4090.64516129,0,4164.51612903,0,4083.5483871,0,4098.70967742,0,4081.29032258,0,3782.25806452,0,4093.5483871,0,4070.32258065,0,4105.48387097,0,4329.03225806,0,4132.90322581,0,4808.70967742,0,4101.93548387,0,0,0,?
2017-11-11 16:24:21.949766,4108.70967742,0,4095.80645161,0,4170.96774194,0,4080.32258065,0,4090.96774194,0,4086.4516129,0,3753.22580645,0,4092.58064516,0,4069.03225806,0,4099.67741935,0,4327.09677419,0,4135.80645161,0,4807.74193548,0,4101.29032258,0,0,0,?
2017-11-11 16:24:21.949876,4108.06451613,0,4101.29032258,0,4162.25806452,0,4081.61290323,0,4084.19354839,0,4085.48387097,0,3734.83870968,0,4094.83870968,0,4066.77419355,0,4095.48387097,0,4337.74193548,0,4140.96774194,0,4809.67741935,0,4098.38709677,0,0,0,?
2017-11-11 16:24:21.949892,4091.61290323,0,4098.70967742,0,4187.41935484,0,4088.70967742,0,4080.96774194,0,4085.16129032,0,3755.48387097,0,4100.32258065,0,4065.80645161,0,4089.67741935,0,4336.4516129,0,4140.0,0,4854.19354839,0,4089.03225806,0,0,0,?
2017-11-11 16:24:21.950050,4076.4516129,0,4097.09677419,0,4169.67741935,0,4096.4516129,0,4091.93548387,0,4085.48387097,0,3754.51612903,0,4103.5483871,0,4067.74193548,0,4095.16129032,0,4364.51612903,0,4128.38709677,0,4852.25806452,0,4087.09677419,0,0,0,?
2017-11-11 16:24:21.950306,4076.4516129,0,4097.09677419,0,4169.67741935,0,4096.4516129,0,4091.93548387,0,4085.48387097,0,3754.51612903,0,4103.5483871,0,4067.74193548,0,4095.16129032,0,4364.51612903,0,4128.38709677,0,4852.25806452,0,4087.09677419,0,0,0,?
2017-11-11 16:24:21.950471,4084.51612903,0,4095.48387097,0,4179.67741935,0,4091.29032258,0,4093.22580645,0,4086.12903226,0,3744.19354839,0,4100.96774194,0,4068.38709677,0,4102.25806452,0,4356.12903226,0,4124.83870968,0,4812.25806452,0,4091.93548387,0,0,0,?
2017-11-11 16:24:21.950564,4084.51612903,0,4084.19354839,0,4178.70967742,0,4087.09677419,0,4085.80645161,0,4092.58064516,0,3788.06451613,0,4100.32258065,0,4067.09677419,0,4099.35483871,0,4338.70967742,0,4121.93548387,0,4814.51612903,0,4085.80645161,0,0,0,?
2017-11-11 16:24:21.950610,4080.64516129,0,4073.5483871,0,4169.35483871,0,4087.74193548,0,4078.70967742,0,4100.0,0,3743.22580645,0,4100.96774194,0,4064.83870968,0,4090.32258065,0,4324.51612903,0,4122.25806452,0,4809.35483871,0,4073.87096774,0,0,0,?
2017-11-11 16:24:21.950858,4083.5483871,0,4074.51612903,0,4166.77419355,0,4090.32258065,0,4079.35483871,0,4100.96774194,0,3748.70967742,0,4100.32258065,0,4114.51612903,0,4087.09677419,0,4336.4516129,0,4128.06451613,0,4809.03225806,0,4068.38709677,0,0,0,?
2017-11-11 16:24:21.951401,4085.80645161,0,4081.93548387,0,4169.03225806,0,4091.61290323,0,4083.5483871,0,4097.09677419,0,3753.87096774,0,4098.38709677,0,4065.80645161,0,4090.32258065,0,4365.48387097,0,4134.83870968,0,4811.93548387,0,4069.03225806,0,0,0,?
2017-11-11 16:24:21.951508,4075.48387097,0,4082.90322581,0,4165.80645161,0,4091.61290323,0,4083.87096774,0,4096.12903226,0,3769.35483871,0,4099.35483871,0,4067.74193548,0,4090.32258065,0,4328.06451613,0,4134.19354839,0,4807.09677419,0,4069.03225806,0,0,0,?
2017-11-11 16:24:21.951636,4062.90322581,0,4079.35483871,0,4161.61290323,0,4090.32258065,0,4082.90322581,0,4097.41935484,0,3782.90322581,0,4101.93548387,0,4067.41935484,0,4086.77419355,0,4365.16129032,0,4127.74193548,0,4848.06451613,0,4070.64516129,0,0,0,?
2017-11-11 16:24:21.951660,4068.06451613,0,4082.58064516,0,4169.35483871,0,4086.12903226,0,4085.80645161,0,4092.25806452,0,3769.35483871,0,4102.90322581,0,4065.80645161,0,4089.03225806,0,4353.22580645,0,4125.48387097,0,4851.29032258,0,4081.93548387,0,0,0,?
2017-11-11 16:24:21.951775,4088.38709677,0,4090.0,0,4183.87096774,0,4081.61290323,0,4090.64516129,0,4079.03225806,0,3783.22580645,0,4100.96774194,0,4114.51612903,0,4098.38709677,0,4363.22580645,0,4130.0,0,4817.41935484,0,4097.41935484,0,0,0,?
2017-11-11 16:24:21.951793,4100.64516129,0,4090.96774194,0,4186.12903226,0,4082.25806452,0,4091.93548387,0,4068.38709677,0,3758.06451613,0,4099.03225806,0,4113.87096774,0,4105.48387097,0,4333.22580645,0,4134.51612903,0,4826.12903226,0,4102.90322581,0,0,0,?
2017-11-11 16:24:21.951849,4097.74193548,0,4086.4516129,0,4174.19354839,0,4088.06451613,0,4091.29032258,0,4066.4516129,0,3760.96774194,0,4098.70967742,0,4113.5483871,0,4104.83870968,0,4348.06451613,0,4133.87096774,0,4817.09677419,0,4098.06451613,0,0,0,?
2017-11-11 16:24:21.951909,4094.83870968,0,4089.03225806,0,4167.74193548,0,4092.90322581,0,4093.22580645,0,4069.03225806,0,3771.29032258,0,4098.38709677,0,4113.22580645,0,4103.22580645,0,4360.0,0,4130.64516129,0,4853.5483871,0,4097.09677419,0,0,0,?
2017-11-11 16:24:21.952178,4099.35483871,0,4099.35483871,0,4176.77419355,0,4091.29032258,0,4097.09677419,0,4071.93548387,0,3773.22580645,0,4098.06451613,0,4112.90322581,0,4105.80645161,0,4370.64516129,0,4128.70967742,0,4849.67741935,0,4104.19354839,0,0,0,?
2017-11-11 16:24:21.952192,4099.35483871,0,4101.61290323,0,4188.70967742,0,4086.4516129,0,4096.4516129,0,4077.41935484,0,3779.35483871,0,4099.67741935,0,4112.58064516,0,4106.77419355,0,4366.12903226,0,4125.48387097,0,4849.35483871,0,4106.77419355,0,0,0,?
2017-11-11 16:24:21.952394,4089.35483871,0,4090.96774194,0,4191.61290323,0,4085.16129032,0,4091.93548387,0,4084.51612903,0,3747.74193548,0,4103.5483871,0,4112.58064516,0,4101.61290323,0,4343.22580645,0,4120.0,0,4844.83870968,0,4097.74193548,0,0,0,?
2017-11-11 16:24:21.952412,4085.48387097,0,4081.93548387,0,4193.87096774,0,4087.74193548,0,4089.67741935,0,4086.12903226,0,3758.06451613,0,4105.48387097,0,4112.90322581,0,4099.35483871,0,4328.06451613,0,4118.06451613,0,4842.25806452,0,4088.06451613,0,0,0,?
2017-11-11 16:24:21.952491,4096.12903226,0,4084.83870968,0,4200.64516129,0,4090.0,0,4090.64516129,0,4079.03225806,0,3742.58064516,0,4103.22580645,0,4112.58064516,0,4105.80645161,0,4340.96774194,0,4123.5483871,0,4850.0,0,4088.38709677,0,0,0,?
2017-11-11 16:24:21.952530,4105.48387097,0,4091.61290323,0,4201.93548387,0,4090.64516129,0,4089.35483871,0,4072.90322581,0,3770.32258065,0,4101.61290323,0,4111.93548387,0,4113.22580645,0,4362.58064516,0,4131.29032258,0,4806.77419355,0,4092.25806452,0,0,0,?
2017-11-11 16:24:21.952594,4098.06451613,0,4091.61290323,0,4190.0,0,4091.61290323,0,4084.83870968,0,4078.06451613,0,3768.38709677,0,4105.16129032,0,4111.61290323,0,4108.70967742,0,4360.96774194,0,4132.90322581,0,4850.96774194,0,4090.0,0,0,0,?
2017-11-11 16:24:21.952605,4083.5483871,0,4089.03225806,0,4178.70967742,0,4092.25806452,0,4083.22580645,0,4088.70967742,0,3780.0,0,4110.0,0,4112.58064516,0,4095.80645161,0,4339.03225806,0,4130.32258065,0,4840.64516129,0,4086.12903226,0,0,0,?
2017-11-11 16:24:21.952645,4079.35483871,0,4090.0,0,4182.90322581,0,4091.29032258,0,4088.06451613,0,4093.5483871,0,3782.90322581,0,4110.32258065,0,4064.83870968,0,4087.74193548,0,4324.83870968,0,4129.35483871,0,4843.5483871,0,4088.06451613,0,0,0,?
2017-11-11 16:24:21.952656,4081.93548387,0,4088.70967742,0,4192.58064516,0,4090.32258065,0,4091.61290323,0,4091.61290323,0,3780.96774194,0,4105.16129032,0,4067.41935484,0,4087.41935484,0,4324.19354839,0,4130.0,0,4807.09677419,0,4091.29032258,0,0,0,?
2017-11-11 16:24:21.952728,4080.32258065,0,4078.70967742,0,4190.0,0,4093.5483871,0,4088.06451613,0,4091.61290323,0,3791.93548387,0,4099.03225806,0,4068.70967742,0,4087.41935484,0,4370.32258065,0,4126.4516129,0,4813.87096774,0,4087.41935484,0,0,0,?
2017-11-11 16:24:21.952835,4080.32258065,0,4070.32258065,0,4179.35483871,0,4099.03225806,0,4080.0,0,4095.48387097,0,3756.12903226,0,4094.19354839,0,4068.38709677,0,4087.09677419,0,4358.06451613,0,4120.96774194,0,4809.35483871,0,4080.32258065,0,0,0,?
2017-11-11 16:24:21.952866,4092.90322581,0,4077.41935484,0,4179.35483871,0,4100.32258065,0,4074.83870968,0,4097.09677419,0,3746.77419355,0,4090.0,0,4066.12903226,0,4092.58064516,0,4354.19354839,0,4121.29032258,0,4807.41935484,0,4080.96774194,0,0,0,?
2017-11-11 16:24:21.952984,4106.12903226,0,4092.25806452,0,4190.64516129,0,4094.19354839,0,4073.22580645,0,4093.5483871,0,3767.74193548,0,4088.38709677,0,4113.87096774,0,4103.87096774,0,4361.29032258,0,4128.70967742,0,4812.58064516,0,4087.74193548,0,0,0,?
2017-11-11 16:24:21.953063,4080.64516129,0,4092.90322581,0,4194.19354839,0,4086.12903226,0,4079.67741935,0,4088.70967742,0,3774.51612903,0,4099.03225806,0,4113.87096774,0,4109.35483871,0,4357.74193548,0,4137.09677419,0,4810.0,0,4085.48387097,0,0,0,?
2017-11-11 16:24:21.953082,4080.64516129,0,4092.90322581,0,4194.19354839,0,4086.12903226,0,4079.67741935,0,4088.70967742,0,3774.51612903,0,4099.03225806,0,4113.87096774,0,4109.35483871,0,4357.74193548,0,4137.09677419,0,4810.0,0,4085.48387097,0,0,0,?
2017-11-11 16:24:21.953124,4086.4516129,0,4098.38709677,0,4198.70967742,0,4090.64516129,0,4101.93548387,0,4073.5483871,0,3761.29032258,0,4097.74193548,0,4066.4516129,0,4114.51612903,0,4338.38709677,0,4135.80645161,0,4816.77419355,0,4099.35483871,0,0,0,?
2017-11-11 16:24:21.953162,4086.4516129,0,4098.38709677,0,4198.70967742,0,4090.64516129,0,4101.93548387,0,4073.5483871,0,3761.29032258,0,4097.74193548,0,4066.4516129,0,4114.51612903,0,4338.38709677,0,4135.80645161,0,4816.77419355,0,4099.35483871,0,0,0,?
2017-11-11 16:24:21.953208,4099.03225806,0,4099.35483871,0,4198.70967742,0,4090.32258065,0,4101.29032258,0,4072.58064516,0,3762.90322581,0,4093.22580645,0,4067.41935484,0,4113.5483871,0,4352.58064516,0,4130.96774194,0,4820.0,0,4102.90322581,0,0,0,?
2017-11-11 16:24:21.953233,4096.12903226,0,4091.29032258,0,4188.70967742,0,4090.64516129,0,4091.29032258,0,4082.25806452,0,3765.16129032,0,4091.93548387,0,4067.74193548,0,4101.93548387,0,4338.38709677,0,4122.90322581,0,4812.58064516,0,4092.90322581,0,0,0,?
2017-11-11 16:24:21.953393,4087.41935484,0,4087.41935484,0,4182.58064516,0,4090.96774194,0,4083.5483871,0,4091.29032258,0,3758.70967742,0,4093.22580645,0,4067.74193548,0,4089.35483871,0,4366.4516129,0,4119.35483871,0,4856.12903226,0,4082.58064516,0,0,0,?
2017-11-11 16:24:21.953406,4083.22580645,0,4094.19354839,0,4186.4516129,0,4090.32258065,0,4084.19354839,0,4089.35483871,0,3791.29032258,0,4094.19354839,0,4066.77419355,0,4086.4516129,0,4362.25806452,0,4123.22580645,0,4810.32258065,0,4083.5483871,0,0,0,?
2017-11-11 16:24:21.953475,4077.09677419,0,4100.96774194,0,4185.80645161,0,4090.32258065,0,4088.06451613,0,4081.61290323,0,3784.51612903,0,4096.12903226,0,4065.48387097,0,4088.70967742,0,4370.64516129,0,4127.74193548,0,4815.80645161,0,4090.0,0,0,0,?
2017-11-11 16:24:21.953597,4066.12903226,0,4097.74193548,0,4171.61290323,0,4092.90322581,0,4090.0,0,4078.06451613,0,3754.19354839,0,4100.0,0,4065.16129032,0,4086.77419355,0,4371.29032258,0,4123.5483871,0,4808.38709677,0,4091.93548387,0,0,0,?
2017-11-11 16:24:21.953721,4064.83870968,0,4091.61290323,0,4159.03225806,0,4096.12903226,0,4092.90322581,0,4079.35483871,0,3776.12903226,0,4102.58064516,0,4066.4516129,0,4082.58064516,0,4367.09677419,0,4114.83870968,0,4846.12903226,0,4091.61290323,0,0,0,?
2017-11-11 16:24:21.953744,4081.61290323,0,4089.03225806,0,4163.5483871,0,4095.16129032,0,4096.77419355,0,4080.32258065,0,3770.32258065,0,4102.25806452,0,4068.70967742,0,4083.5483871,0,4322.90322581,0,4111.29032258,0,4842.90322581,0,4093.5483871,0,0,0,?
2017-11-11 16:24:21.953827,4099.35483871,0,4084.51612903,0,4177.41935484,0,4091.29032258,0,4095.80645161,0,4080.32258065,0,3745.16129032,0,4101.29032258,0,4070.32258065,0,4086.4516129,0,4332.25806452,0,4114.83870968,0,4848.06451613,0,4091.29032258,0,0,0,?
2017-11-11 16:24:21.953887,4097.74193548,0,4073.5483871,0,4181.93548387,0,4090.0,0,4088.06451613,0,4082.58064516,0,3784.19354839,0,4102.58064516,0,4070.0,0,4083.22580645,0,4326.12903226,0,4119.03225806,0,4848.70967742,0,4079.03225806,0,0,0,?
2017-11-11 16:24:21.954070,4084.51612903,0,4066.77419355,0,4178.06451613,0,4091.61290323,0,4081.29032258,0,4085.16129032,0,3791.93548387,0,4103.5483871,0,4066.77419355,0,4076.77419355,0,4363.87096774,0,4122.58064516,0,4846.12903226,0,4066.77419355,0,0,0,?
2017-11-11 16:24:21.954082,4079.35483871,0,4076.12903226,0,4178.06451613,0,4092.90322581,0,4082.90322581,0,4083.5483871,0,3745.16129032,0,4101.61290323,0,4113.22580645,0,4078.38709677,0,4371.61290323,0,4127.41935484,0,4850.64516129,0,4067.74193548,0,0,0,?
2017-11-11 16:24:21.954133,4082.58064516,0,4090.96774194,0,4182.25806452,0,4092.25806452,0,4087.74193548,0,4082.25806452,0,3786.12903226,0,4098.06451613,0,4110.96774194,0,4088.70967742,0,4349.03225806,0,4131.61290323,0,4809.67741935,0,4079.35483871,0,0,0,?
2017-11-11 16:24:21.954214,4081.29032258,0,4095.48387097,0,4181.61290323,0,4091.61290323,0,4088.70967742,0,4089.35483871,0,3776.77419355,0,4096.4516129,0,4112.25806452,0,4097.41935484,0,4367.09677419,0,4128.70967742,0,4809.67741935,0,4087.41935484,0,0,0,?
2017-11-11 16:24:21.954268,4078.38709677,0,4090.32258065,0,4180.96774194,0,4093.22580645,0,4087.09677419,0,4100.0,0,3769.03225806,0,4097.74193548,0,4065.48387097,0,4100.0,0,4360.0,0,4122.25806452,0,4850.96774194,0,4090.32258065,0,0,0,?
2017-11-11 16:24:21.954312,4088.70967742,0,4090.0,0,4192.90322581,0,4093.5483871,0,4089.03225806,0,4100.0,0,3749.03225806,0,4098.70967742,0,4068.70967742,0,4103.87096774,0,4346.4516129,0,4121.93548387,0,4849.35483871,0,4096.77419355,0,0,0,?
2017-11-11 16:24:21.954415,4107.74193548,0,4097.41935484,0,4161.29032258,0,4091.61290323,0,4092.58064516,0,4085.48387097,0,3722.90322581,0,4100.0,0,4069.03225806,0,4111.29032258,0,4343.22580645,0,4130.96774194,0,4811.29032258,0,4106.12903226,0,0,0,?
2017-11-11 16:24:21.954476,4064.51612903,0,4100.32258065,0,4167.09677419,0,4090.0,0,4091.61290323,0,4070.64516129,0,3719.35483871,0,4104.19354839,0,4066.77419355,0,4064.51612903,0,4340.0,0,4141.29032258,0,4821.29032258,0,4106.12903226,0,0,0,?
2017-11-11 16:24:21.954509,4104.19354839,0,4095.80645161,0,4207.09677419,0,4091.29032258,0,4085.80645161,0,4066.77419355,0,3744.83870968,0,4110.0,0,4113.87096774,0,4110.0,0,4327.09677419,0,4144.51612903,0,4818.38709677,0,4095.48387097,0,0,0,?
2017-11-11 16:24:21.954538,4092.58064516,0,4094.19354839,0,4199.03225806,0,4093.22580645,0,4082.58064516,0,4072.25806452,0,3769.03225806,0,4111.29032258,0,4111.61290323,0,4105.16129032,0,4368.06451613,0,4141.93548387,0,4812.90322581,0,4087.74193548,0,0,0,?
2017-11-11 16:24:21.954574,4090.64516129,0,4099.35483871,0,4200.64516129,0,4093.5483871,0,4084.51612903,0,4078.70967742,0,3770.32258065,0,4106.12903226,0,4111.93548387,0,4105.16129032,0,4372.25806452,0,4138.38709677,0,4816.12903226,0,4089.35483871,0,0,0,?
2017-11-11 16:24:21.954587,4088.38709677,0,4100.32258065,0,4198.70967742,0,4094.19354839,0,4085.80645161,0,4083.22580645,0,3767.09677419,0,4099.03225806,0,4114.19354839,0,4104.19354839,0,4323.87096774,0,4132.90322581,0,4819.35483871,0,4091.29032258,0,0,0,?
2017-11-11 16:24:21.954615,4079.67741935,0,4092.58064516,0,4184.51612903,0,4098.38709677,0,4084.51612903,0,4086.77419355,0,3781.29032258,0,4095.80645161,0,4066.77419355,0,4097.09677419,0,4359.67741935,0,4126.77419355,0,4812.58064516,0,4084.83870968,0,0,0,?
2017-11-11 16:24:21.954639,4076.77419355,0,4087.41935484,0,4171.61290323,0,4102.58064516,0,4085.80645161,0,4085.80645161,0,3750.64516129,0,4096.12903226,0,4067.74193548,0,4089.67741935,0,4345.80645161,0,4125.16129032,0,4854.19354839,0,4077.74193548,0,0,0,?
2017-11-11 16:24:21.954720,4086.12903226,0,4090.64516129,0,4171.61290323,0,4101.93548387,0,4091.61290323,0,4080.0,0,3753.5483871,0,4097.09677419,0,4066.4516129,0,4090.32258065,0,4354.51612903,0,4130.64516129,0,4856.4516129,0,4077.74193548,0,0,0,?
2017-11-11 16:24:21.954738,4091.29032258,0,4091.93548387,0,4175.48387097,0,4097.41935484,0,4096.12903226,0,4077.74193548,0,3747.74193548,0,4098.70967742,0,4114.51612903,0,4093.5483871,0,4322.58064516,0,4135.16129032,0,4812.25806452,0,4078.70967742,0,0,0,?
2017-11-11 16:24:21.954788,4077.74193548,0,4084.19354839,0,4170.0,0,4094.83870968,0,4095.80645161,0,4084.51612903,0,3754.83870968,0,4100.0,0,4112.90322581,0,4090.32258065,0,4372.58064516,0,4131.29032258,0,4809.67741935,0,4072.58064516,0,0,0,?
2017-11-11 16:24:21.954800,4059.03225806,0,4075.80645161,0,4162.90322581,0,4095.80645161,0,4095.16129032,0,4094.51612903,0,3770.32258065,0,4098.70967742,0,4112.25806452,0,4082.25806452,0,4353.5483871,0,4122.25806452,0,4851.93548387,0,4065.80645161,0,0,0,?
2017-11-11 16:24:21.954859,4055.16129032,0,4077.41935484,0,4165.80645161,0,4096.12903226,0,4095.80645161,0,4096.12903226,0,3774.51612903,0,4093.22580645,0,4112.90322581,0,4079.67741935,0,4340.64516129,0,4116.77419355,0,4852.25806452,0,4068.06451613,0,0,0,?
2017-11-11 16:24:21.954870,4063.22580645,0,4082.25806452,0,4172.90322581,0,4093.87096774,0,4093.5483871,0,4090.64516129,0,3768.38709677,0,4088.38709677,0,4114.19354839,0,4082.90322581,0,4341.29032258,0,4117.41935484,0,4808.70967742,0,4075.48387097,0,0,0,?
2017-11-11 16:24:21.954953,4067.74193548,0,4080.0,0,4169.35483871,0,4092.58064516,0,4085.80645161,0,4086.77419355,0,3769.35483871,0,4089.03225806,0,4064.83870968,0,4083.87096774,0,4340.64516129,0,4118.70967742,0,4807.74193548,0,4077.09677419,0,0,0,?
2017-11-11 16:24:21.954969,4070.0,0,4076.12903226,0,4160.64516129,0,4093.5483871,0,4079.35483871,0,4087.09677419,0,3772.90322581,0,4094.83870968,0,4065.80645161,0,4082.25806452,0,4337.41935484,0,4120.64516129,0,4849.35483871,0,4075.80645161,0,0,0,?
2017-11-11 16:24:21.955010,4081.29032258,0,4083.87096774,0,4164.19354839,0,4094.19354839,0,4081.61290323,0,4084.83870968,0,3756.4516129,0,4098.38709677,0,4066.77419355,0,4086.77419355,0,4350.0,0,4126.12903226,0,4848.38709677,0,4082.90322581,0,0,0,?
2017-11-11 16:24:21.955101,4096.4516129,0,4098.70967742,0,4180.32258065,0,4092.25806452,0,4088.70967742,0,4077.41935484,0,3774.83870968,0,4098.06451613,0,4067.41935484,0,4097.41935484,0,4329.03225806,0,4134.51612903,0,4808.06451613,0,4096.77419355,0,0,0,?
2017-11-11 16:24:21.955140,4099.03225806,0,4104.51612903,0,4191.93548387,0,4090.96774194,0,4091.93548387,0,4070.96774194,0,3760.64516129,0,4097.41935484,0,4067.41935484,0,4103.87096774,0,4351.61290323,0,4138.70967742,0,4813.87096774,0,4104.83870968,0,0,0,?
2017-11-11 16:24:21.955152,4090.64516129,0,4097.41935484,0,4193.87096774,0,4092.58064516,0,4091.29032258,0,4067.74193548,0,3775.48387097,0,4099.03225806,0,4066.77419355,0,4101.93548387,0,4353.87096774,0,4136.77419355,0,4807.41935484,0,4102.90322581,0,0,0,?
2017-11-11 16:24:21.955184,4091.93548387,0,4090.32258065,0,4198.38709677,0,4093.87096774,0,4092.58064516,0,4063.5483871,0,3791.29032258,0,4099.03225806,0,4065.48387097,0,4100.64516129,0,4351.29032258,0,4135.48387097,0,4850.0,0,4101.29032258,0,0,0,?
2017-11-11 16:24:21.955197,4107.09677419,0,4090.0,0,4207.09677419,0,4091.93548387,0,4095.80645161,0,4060.0,0,3787.09677419,0,4096.12903226,0,4064.51612903,0,4105.16129032,0,4357.41935484,0,4137.09677419,0,4850.0,0,4103.87096774,0,0,0,?
2017-11-11 16:24:21.955324,4065.16129032,0,4090.0,0,4206.77419355,0,4089.35483871,0,4095.48387097,0,4063.5483871,0,3774.83870968,0,4092.25806452,0,4064.51612903,0,4107.41935484,0,4359.03225806,0,4136.4516129,0,4850.64516129,0,4102.25806452,0,0,0,?
2017-11-11 16:24:21.955338,4105.48387097,0,4087.74193548,0,4192.90322581,0,4090.64516129,0,4090.96774194,0,4074.51612903,0,3770.32258065,0,4090.96774194,0,4065.16129032,0,4101.29032258,0,4345.16129032,0,4130.32258065,0,4845.48387097,0,4093.5483871,0,0,0,?
2017-11-11 16:24:21.955360,4090.64516129,0,4091.93548387,0,4183.87096774,0,4094.83870968,0,4088.38709677,0,4080.96774194,0,3764.19354839,0,4091.61290323,0,4065.48387097,0,4094.19354839,0,4332.58064516,0,4126.12903226,0,4844.83870968,0,4088.70967742,0,0,0,?
2017-11-11 16:24:21.955372,4086.4516129,0,4102.58064516,0,4190.64516129,0,4096.77419355,0,4089.67741935,0,4076.77419355,0,3748.70967742,0,4093.5483871,0,4064.83870968,0,4094.83870968,0,4339.67741935,0,4129.35483871,0,4807.09677419,0,4093.87096774,0,0,0,?
2017-11-11 16:24:21.955460,4086.4516129,0,4105.80645161,0,4200.32258065,0,4095.80645161,0,4089.35483871,0,4070.0,0,3743.22580645,0,4097.09677419,0,4114.19354839,0,4097.74193548,0,4351.29032258,0,4134.83870968,0,4820.32258065,0,4099.67741935,0,0,0,?
2017-11-11 16:24:21.955492,4082.25806452,0,4095.16129032,0,4199.35483871,0,4094.83870968,0,4085.48387097,0,4073.5483871,0,3764.51612903,0,4102.25806452,0,4114.19354839,0,4093.5483871,0,4341.61290323,0,4133.5483871,0,4819.35483871,0,4097.09677419,0,0,0,?
2017-11-11 16:24:21.955530,4081.29032258,0,4083.5483871,0,4194.51612903,0,4094.51612903,0,4083.22580645,0,4085.48387097,0,3790.0,0,4104.19354839,0,4064.83870968,0,4086.12903226,0,4365.16129032,0,4126.77419355,0,4809.67741935,0,4091.93548387,0,0,0,?
2017-11-11 16:24:21.955544,4091.61290323,0,4084.51612903,0,4197.09677419,0,4093.5483871,0,4084.51612903,0,4096.4516129,0,3789.67741935,0,4100.64516129,0,4065.16129032,0,4084.51612903,0,4347.09677419,0,4121.93548387,0,4807.09677419,0,4092.58064516,0,0,0,?
2017-11-11 16:24:21.955721,4099.35483871,0,4092.25806452,0,4198.38709677,0,4093.5483871,0,4083.87096774,0,4102.90322581,0,3773.87096774,0,4096.12903226,0,4064.83870968,0,4087.74193548,0,4343.87096774,0,4121.29032258,0,4811.93548387,0,4093.22580645,0,0,0,?
2017-11-11 16:24:21.955738,4089.03225806,0,4093.22580645,0,4184.51612903,0,4097.41935484,0,4078.38709677,0,4106.77419355,0,3776.4516129,0,4097.41935484,0,4113.5483871,0,4086.4516129,0,4341.93548387,0,4121.29032258,0,4811.29032258,0,4084.83870968,0,0,0,?
