Timestamp,F3 Value,F3 Quality,FC5 Value,FC5 Quality,F7 Value,F7 Quality,T7 Value,T7 Quality,P7 Value,P7 Quality,O1 Value,O1 Quality,O2 Value,O2 Quality,P8 Value,P8 Quality,T8 Value,T8 Quality,F8 Value,F8 Quality,AF4 Value,AF4 Quality,FC6 Value,FC6 Quality,F4 Value,F4 Quality,AF3 Value,AF3 Quality,X Value,Y Value,Z Value
2017-11-11 16:18:39.942586,4080.0,0,4073.22580645,0,4196.12903226,0,4076.4516129,0,4060.32258065,0,4078.06451613,0,3744.83870968,0,4093.22580645,0,4091.61290323,0,4082.90322581,0,4325.16129032,0,4114.51612903,0,4842.25806452,0,4079.35483871,0,0,0,?
2017-11-11 16:18:39.942657,4088.70967742,0,4100.32258065,0,4208.38709677,0,4084.19354839,0,4102.25806452,0,4068.38709677,0,3750.32258065,0,4093.22580645,0,4109.67741935,0,4066.4516129,0,4330.96774194,0,4122.90322581,0,4818.06451613,0,4111.93548387,0,0,0,?
2017-11-11 16:18:39.942680,4097.09677419,0,4096.77419355,0,4207.09677419,0,4084.51612903,0,4103.5483871,0,4068.06451613,0,3747.74193548,0,4094.51612903,0,4109.03225806,0,4069.35483871,0,4338.38709677,0,4123.5483871,0,4820.64516129,0,4112.25806452,0,0,0,?
2017-11-11 16:18:39.942761,4099.67741935,0,4087.41935484,0,4196.77419355,0,4090.96774194,0,4097.74193548,0,4080.0,0,3763.87096774,0,4097.09677419,0,4109.35483871,0,4064.51612903,0,4331.61290323,0,4126.12903226,0,4812.25806452,0,4100.32258065,0,0,0,?
2017-11-11 16:18:39.942826,4105.48387097,0,4086.12903226,0,4190.96774194,0,4097.09677419,0,4091.93548387,0,4093.22580645,0,3772.25806452,0,4098.70967742,0,4110.96774194,0,4107.09677419,0,4368.06451613,0,4131.29032258,0,4854.51612903,0,4089.35483871,0,0,0,?
2017-11-11 16:18:39.942959,4066.4516129,0,4097.74193548,0,4196.77419355,0,4095.48387097,0,4089.03225806,0,4096.12903226,0,3757.74193548,0,4098.70967742,0,4111.93548387,0,4101.93548387,0,4364.51612903,0,4137.41935484,0,4809.03225806,0,4088.70967742,0,0,0,?
2017-11-11 16:18:39.942993,4066.12903226,0,4107.41935484,0,4198.06451613,0,4088.38709677,0,4085.48387097,0,4090.64516129,0,3745.16129032,0,4099.67741935,0,4110.96774194,0,4095.16129032,0,4366.4516129,0,4138.06451613,0,4818.38709677,0,4089.67741935,0,0,0,?
2017-11-11 16:18:39.943093,4095.16129032,0,4102.58064516,0,4183.22580645,0,4083.87096774,0,4081.29032258,0,4085.48387097,0,3765.48387097,0,4103.5483871,0,4108.38709677,0,4083.87096774,0,4360.32258065,0,4130.0,0,4817.09677419,0,4082.58064516,0,0,0,?
2017-11-11 16:18:39.943113,4071.93548387,0,4090.32258065,0,4165.16129032,0,4085.48387097,0,4081.61290323,0,4083.22580645,0,3755.80645161,0,4106.12903226,0,4107.41935484,0,4077.09677419,0,4353.87096774,0,4120.64516129,0,4808.70967742,0,4073.22580645,0,0,0,?
2017-11-11 16:18:39.943193,4067.09677419,0,4082.90322581,0,4160.96774194,0,4089.03225806,0,4088.06451613,0,4083.5483871,0,3781.93548387,0,4103.22580645,0,4110.0,0,4083.87096774,0,4360.96774194,0,4118.70967742,0,4806.77419355,0,4070.0,0,0,0,?
2017-11-11 16:18:39.943323,4076.12903226,0,4079.03225806,0,4166.4516129,0,4092.90322581,0,4092.90322581,0,4090.0,0,3785.80645161,0,4095.80645161,0,4114.19354839,0,4094.19354839,0,4369.03225806,0,4121.93548387,0,4810.0,0,4069.03225806,0,0,0,?
2017-11-11 16:18:39.943447,4080.64516129,0,4073.5483871,0,4166.4516129,0,4098.70967742,0,4090.64516129,0,4104.19354839,0,3783.5483871,0,4090.0,0,4066.12903226,0,4091.29032258,0,4354.51612903,0,4121.61290323,0,4807.09677419,0,4061.93548387,0,0,0,?
2017-11-11 16:18:39.943479,4078.06451613,0,4069.67741935,0,4162.90322581,0,4102.58064516,0,4085.48387097,0,4112.58064516,0,3777.41935484,0,4089.67741935,0,4066.12903226,0,4079.67741935,0,4326.77419355,0,4119.67741935,0,4850.96774194,0,4056.77419355,0,0,0,?
2017-11-11 16:18:39.943604,4075.48387097,0,4073.5483871,0,4167.74193548,0,4096.12903226,0,4081.61290323,0,4097.09677419,0,3756.4516129,0,4094.51612903,0,4065.16129032,0,4080.32258065,0,4323.22580645,0,4124.83870968,0,4855.48387097,0,4065.16129032,0,0,0,?
2017-11-11 16:18:39.943619,4072.58064516,0,4079.35483871,0,4177.09677419,0,4082.25806452,0,4080.64516129,0,4067.41935484,0,3782.25806452,0,4100.32258065,0,4064.83870968,0,4094.83870968,0,4352.90322581,0,4134.51612903,0,4818.70967742,0,4081.29032258,0,0,0,?
2017-11-11 16:18:39.943726,4068.06451613,0,4082.90322581,0,4177.41935484,0,4078.06451613,0,4085.16129032,0,4058.70967742,0,3781.93548387,0,4101.61290323,0,4064.51612903,0,4097.74193548,0,4334.51612903,0,4133.87096774,0,4821.61290323,0,4086.77419355,0,0,0,?
2017-11-11 16:18:39.943752,4073.5483871,0,4090.0,0,4172.25806452,0,4090.0,0,4098.06451613,0,4083.22580645,0,3752.58064516,0,4094.51612903,0,4114.51612903,0,4078.70967742,0,4343.5483871,0,4118.70967742,0,4808.70967742,0,4081.29032258,0,0,0,?
2017-11-11 16:18:39.943870,4095.80645161,0,4102.25806452,0,4178.70967742,0,4100.32258065,0,4110.32258065,0,4105.48387097,0,3759.35483871,0,4085.48387097,0,4114.51612903,0,4067.74193548,0,4341.29032258,0,4109.35483871,0,4850.64516129,0,4083.5483871,0,0,0,?
2017-11-11 16:18:39.943969,4064.51612903,0,4105.48387097,0,4197.74193548,0,4087.41935484,0,4103.5483871,0,4086.4516129,0,3784.83870968,0,4086.12903226,0,4066.12903226,0,4094.19354839,0,4345.16129032,0,4121.93548387,0,4811.29032258,0,4100.64516129,0,0,0,?
2017-11-11 16:18:39.944029,4106.4516129,0,4087.74193548,0,4209.35483871,0,4058.06451613,0,4077.41935484,0,4034.83870968,0,3753.22580645,0,4101.29032258,0,4068.06451613,0,4092.25806452,0,4350.96774194,0,4148.06451613,0,4828.38709677,0,4066.77419355,0,0,0,?
2017-11-11 16:18:39.944101,4078.38709677,0,4063.87096774,0,4203.22580645,0,4038.38709677,0,4055.16129032,0,4046.12903226,0,3738.70967742,0,4068.70967742,0,4068.06451613,0,4119.67741935,0,4353.87096774,0,4163.5483871,0,4832.90322581,0,4068.06451613,0,0,0,?
2017-11-11 16:18:39.944167,4063.22580645,0,4060.64516129,0,4194.83870968,0,4043.22580645,0,4057.74193548,0,4046.12903226,0,3733.5483871,0,4074.51612903,0,4066.77419355,0,4109.35483871,0,4369.67741935,0,4160.64516129,0,4826.77419355,0,4110.96774194,0,0,0,?
2017-11-11 16:18:39.944263,4073.87096774,0,4079.67741935,0,4197.41935484,0,4062.25806452,0,4080.96774194,0,4075.80645161,0,3725.16129032,0,4065.80645161,0,4066.12903226,0,4078.06451613,0,4355.16129032,0,4147.74193548,0,4821.93548387,0,4105.16129032,0,0,0,?
2017-11-11 16:18:39.944319,4090.96774194,0,4099.67741935,0,4205.80645161,0,4082.58064516,0,4103.22580645,0,4067.41935484,0,3723.87096774,0,4102.58064516,0,4067.41935484,0,4093.87096774,0,4385.16129032,0,4131.29032258,0,4815.48387097,0,4099.03225806,0,0,0,?
2017-11-11 16:18:39.944356,4097.74193548,0,4106.77419355,0,4161.29032258,0,4098.70967742,0,4111.93548387,0,4108.70967742,0,3737.74193548,0,4090.96774194,0,4068.06451613,0,4063.5483871,0,4383.87096774,0,4114.19354839,0,4851.93548387,0,4089.03225806,0,0,0,?
2017-11-11 16:18:39.944441,4100.0,0,4105.48387097,0,4168.06451613,0,4104.83870968,0,4108.06451613,0,4079.35483871,0,3743.87096774,0,4084.83870968,0,4066.77419355,0,4051.29032258,0,4365.80645161,0,4105.16129032,0,4841.93548387,0,4083.22580645,0,0,0,?
2017-11-11 16:18:39.944455,4102.90322581,0,4100.64516129,0,4177.41935484,0,4094.51612903,0,4094.51612903,0,4113.5483871,0,3721.93548387,0,4087.41935484,0,4114.51612903,0,4072.25806452,0,4364.51612903,0,4114.83870968,0,4850.96774194,0,4089.03225806,0,0,0,?
2017-11-11 16:18:39.944553,4098.70967742,0,4089.03225806,0,4174.51612903,0,4076.12903226,0,4076.4516129,0,4078.06451613,0,3740.96774194,0,4098.38709677,0,4113.87096774,0,4109.03225806,0,4378.70967742,0,4135.48387097,0,4819.03225806,0,4096.77419355,0,0,0,?
2017-11-11 16:18:39.944565,4086.77419355,0,4077.09677419,0,4202.58064516,0,4070.96774194,0,4068.06451613,0,4065.80645161,0,3734.83870968,0,4109.67741935,0,4113.87096774,0,4070.96774194,0,4379.03225806,0,4144.83870968,0,4823.5483871,0,4091.93548387,0,0,0,?
2017-11-11 16:18:39.944625,4084.83870968,0,4080.32258065,0,4179.67741935,0,4086.77419355,0,4080.64516129,0,4091.29032258,0,3752.58064516,0,4109.67741935,0,4113.22580645,0,4096.4516129,0,4360.32258065,0,4135.16129032,0,4810.32258065,0,4080.96774194,0,0,0,?
2017-11-11 16:18:39.944645,4098.06451613,0,4097.74193548,0,4179.35483871,0,4105.48387097,0,4100.64516129,0,4070.96774194,0,3713.22580645,0,4100.32258065,0,4112.25806452,0,4068.06451613,0,4396.4516129,0,4121.29032258,0,4850.0,0,4079.67741935,0,0,0,?
2017-11-11 16:18:39.944739,4107.41935484,0,4107.41935484,0,4195.16129032,0,4106.4516129,0,4104.83870968,0,4071.61290323,0,3709.67741935,0,4093.22580645,0,4112.90322581,0,4068.70967742,0,4398.70967742,0,4119.35483871,0,4851.29032258,0,4087.09677419,0,0,0,?
2017-11-11 16:18:39.944769,4096.4516129,0,4096.4516129,0,4203.5483871,0,4095.16129032,0,4089.03225806,0,4101.61290323,0,3712.58064516,0,4095.48387097,0,4064.83870968,0,4090.32258065,0,4401.61290323,0,4125.48387097,0,4853.5483871,0,4087.09677419,0,0,0,?
2017-11-11 16:18:39.944811,4080.64516129,0,4082.25806452,0,4197.74193548,0,4090.64516129,0,4073.87096774,0,4088.06451613,0,3726.77419355,0,4099.35483871,0,4065.48387097,0,4105.80645161,0,4395.80645161,0,4129.35483871,0,4850.0,0,4076.12903226,0,0,0,?
2017-11-11 16:18:39.945052,4083.22580645,0,4086.12903226,0,4193.22580645,0,4095.80645161,0,4076.4516129,0,4087.74193548,0,3730.0,0,4097.74193548,0,4113.22580645,0,4110.64516129,0,4395.80645161,0,4131.29032258,0,4851.61290323,0,4068.38709677,0,0,0,?
2017-11-11 16:18:39.945106,4098.06451613,0,4101.93548387,0,4195.16129032,0,4098.70967742,0,4088.38709677,0,4086.77419355,0,3714.83870968,0,4094.19354839,0,4109.35483871,0,4114.19354839,0,4404.51612903,0,4135.16129032,0,4813.87096774,0,4072.58064516,0,0,0,?
2017-11-11 16:18:39.945163,4100.96774194,0,4108.70967742,0,4194.83870968,0,4093.5483871,0,4094.19354839,0,4080.32258065,0,3754.83870968,0,4095.80645161,0,4107.74193548,0,4064.83870968,0,4403.5483871,0,4138.06451613,0,4823.5483871,0,4080.64516129,0,0,0,?
2017-11-11 16:18:39.945259,4088.06451613,0,4103.5483871,0,4190.64516129,0,4085.80645161,0,4092.25806452,0,4074.51612903,0,3714.19354839,0,4101.93548387,0,4108.06451613,0,4106.4516129,0,4384.51612903,0,4135.16129032,0,4820.64516129,0,4085.16129032,0,0,0,?
2017-11-11 16:18:39.945279,4080.96774194,0,4100.96774194,0,4195.16129032,0,4081.29032258,0,4091.93548387,0,4070.96774194,0,3728.70967742,0,4104.19354839,0,4107.41935484,0,4093.22580645,0,4371.29032258,0,4130.32258065,0,4813.87096774,0,4089.35483871,0,0,0,?
2017-11-11 16:18:39.945321,4086.77419355,0,4105.48387097,0,4207.41935484,0,4080.0,0,4094.19354839,0,4068.38709677,0,3735.48387097,0,4100.0,0,4105.48387097,0,4086.4516129,0,4381.29032258,0,4130.0,0,4812.58064516,0,4093.87096774,0,0,0,?
2017-11-11 16:18:39.945388,4089.67741935,0,4105.80645161,0,4210.32258065,0,4082.25806452,0,4092.90322581,0,4069.67741935,0,3745.48387097,0,4094.83870968,0,4102.90322581,0,4085.80645161,0,4398.70967742,0,4131.93548387,0,4809.35483871,0,4091.29032258,0,0,0,?
2017-11-11 16:18:39.945515,4079.67741935,0,4096.77419355,0,4196.12903226,0,4088.06451613,0,4087.74193548,0,4078.06451613,0,3764.19354839,0,4092.58064516,0,4102.25806452,0,4084.51612903,0,4401.61290323,0,4131.29032258,0,4848.38709677,0,4080.96774194,0,0,0,?
2017-11-11 16:18:39.945535,4071.93548387,0,4090.32258065,0,4183.5483871,0,4092.90322581,0,4084.51612903,0,4086.12903226,0,3769.03225806,0,4092.25806452,0,4104.51612903,0,4084.83870968,0,4397.41935484,0,4128.70967742,0,4839.03225806,0,4075.80645161,0,0,0,?
2017-11-11 16:18:39.945587,4077.09677419,0,4093.5483871,0,4187.74193548,0,4091.29032258,0,4084.19354839,0,4085.48387097,0,3743.87096774,0,4091.29032258,0,4109.35483871,0,4090.96774194,0,4355.48387097,0,4127.09677419,0,4843.22580645,0,4082.90322581,0,0,0,?
2017-11-11 16:18:39.945654,4084.19354839,0,4096.12903226,0,4198.06451613,0,4085.48387097,0,4081.93548387,0,4080.0,0,3712.25806452,0,4090.64516129,0,4065.16129032,0,4095.48387097,0,4369.67741935,0,4123.22580645,0,4851.29032258,0,4091.29032258,0,0,0,?
2017-11-11 16:18:39.945762,4081.93548387,0,4088.70967742,0,4196.77419355,0,4083.22580645,0,4078.06451613,0,4079.67741935,0,3758.38709677,0,4092.58064516,0,4069.03225806,0,4090.0,0,4370.64516129,0,4114.51612903,0,4848.38709677,0,4088.70967742,0,0,0,?
2017-11-11 16:18:39.945800,4077.74193548,0,4080.64516129,0,4187.74193548,0,4086.4516129,0,4080.96774194,0,4082.90322581,0,3725.48387097,0,4094.83870968,0,4068.70967742,0,4081.29032258,0,4362.58064516,0,4106.77419355,0,4837.74193548,0,4081.29032258,0,0,0,?
2017-11-11 16:18:39.945919,4083.22580645,0,4083.22580645,0,4183.87096774,0,4090.0,0,4091.93548387,0,4083.22580645,0,3736.12903226,0,4095.80645161,0,4066.4516129,0,4083.5483871,0,4364.19354839,0,4108.06451613,0,4834.51612903,0,4081.29032258,0,0,0,?
2017-11-11 16:18:39.945951,4090.96774194,0,4091.29032258,0,4185.80645161,0,4090.96774194,0,4101.61290323,0,4081.61290323,0,3733.5483871,0,4096.4516129,0,4065.16129032,0,4095.16129032,0,4372.90322581,0,4115.80645161,0,4838.06451613,0,4086.12903226,0,0,0,?
2017-11-11 16:18:39.945999,4087.74193548,0,4091.93548387,0,4186.4516129,0,4090.64516129,0,4100.32258065,0,4086.12903226,0,3733.87096774,0,4099.35483871,0,4066.4516129,0,4101.93548387,0,4369.67741935,0,4120.96774194,0,4837.74193548,0,4086.4516129,0,0,0,?
2017-11-11 16:18:39.946019,4081.61290323,0,4087.41935484,0,4191.29032258,0,4089.67741935,0,4090.64516129,0,4092.90322581,0,3734.83870968,0,4102.90322581,0,4067.41935484,0,4101.29032258,0,4357.74193548,0,4122.25806452,0,4835.16129032,0,4084.19354839,0,0,0,?
2017-11-11 16:18:39.946071,4089.35483871,0,4088.06451613,0,4209.67741935,0,4086.12903226,0,4080.64516129,0,4091.93548387,0,3717.41935484,0,4103.5483871,0,4065.48387097,0,4102.90322581,0,4363.22580645,0,4127.41935484,0,4844.83870968,0,4089.03225806,0,0,0,?
2017-11-11 16:18:39.946161,4106.12903226,0,4094.19354839,0,4180.96774194,0,4081.93548387,0,4075.16129032,0,4083.5483871,0,3736.77419355,0,4101.29032258,0,4110.0,0,4108.06451613,0,4389.03225806,0,4136.4516129,0,4813.87096774,0,4098.70967742,0,0,0,?
2017-11-11 16:18:39.946256,4112.90322581,0,4096.77419355,0,4184.19354839,0,4081.61290323,0,4074.51612903,0,4080.0,0,3722.25806452,0,4098.38709677,0,4102.58064516,0,4109.35483871,0,4405.16129032,0,4141.29032258,0,4823.5483871,0,4102.90322581,0,0,0,?
2017-11-11 16:18:39.946297,4105.80645161,0,4095.80645161,0,4169.35483871,0,4085.16129032,0,4080.32258065,0,4084.83870968,0,3732.25806452,0,4096.77419355,0,4099.35483871,0,4106.12903226,0,4393.87096774,0,4139.03225806,0,4816.4516129,0,4101.29032258,0,0,0,?
2017-11-11 16:18:39.946402,4101.29032258,0,4101.29032258,0,4208.38709677,0,4087.09677419,0,4091.61290323,0,4087.41935484,0,3743.22580645,0,4095.16129032,0,4102.90322581,0,4109.03225806,0,4372.90322581,0,4137.74193548,0,4809.35483871,0,4104.83870968,0,0,0,?
2017-11-11 16:18:39.946429,4103.87096774,0,4110.96774194,0,4210.32258065,0,4084.51612903,0,4099.67741935,0,4081.29032258,0,3741.93548387,0,4093.87096774,0,4111.29032258,0,4069.03225806,0,4362.58064516,0,4140.96774194,0,4812.90322581,0,4112.58064516,0,0,0,?
2017-11-11 16:18:39.946487,4101.61290323,0,4113.22580645,0,4162.90322581,0,4083.87096774,0,4096.12903226,0,4074.51612903,0,3748.06451613,0,4096.4516129,0,4068.06451613,0,4072.58064516,0,4355.80645161,0,4142.58064516,0,4817.74193548,0,4110.64516129,0,0,0,?
2017-11-11 16:18:39.946546,4090.64516129,0,4104.51612903,0,4208.70967742,0,4089.03225806,0,4083.87096774,0,4074.51612903,0,3722.25806452,0,4102.90322581,0,4070.0,0,4112.58064516,0,4391.61290323,0,4138.06451613,0,4813.22580645,0,4094.19354839,0,0,0,?
2017-11-11 16:18:39.946618,4085.16129032,0,4096.77419355,0,4206.77419355,0,4095.48387097,0,4074.19354839,0,4077.41935484,0,3742.25806452,0,4108.70967742,0,4066.77419355,0,4100.32258065,0,4379.35483871,0,4131.93548387,0,4807.74193548,0,4077.41935484,0,0,0,?
2017-11-11 16:18:39.946634,4091.29032258,0,4096.77419355,0,4162.25806452,0,4097.09677419,0,4072.25806452,0,4078.38709677,0,3737.41935484,0,4109.03225806,0,4112.90322581,0,4097.41935484,0,4381.61290323,0,4129.35483871,0,4810.32258065,0,4071.93548387,0,0,0,?
2017-11-11 16:18:39.946698,4093.5483871,0,4096.77419355,0,4161.29032258,0,4094.51612903,0,4075.48387097,0,4081.61290323,0,3724.83870968,0,4104.83870968,0,4110.0,0,4098.06451613,0,4385.16129032,0,4126.77419355,0,4813.5483871,0,4072.25806452,0,0,0,?
2017-11-11 16:18:39.946723,4081.29032258,0,4091.29032258,0,4194.83870968,0,4093.87096774,0,4081.61290323,0,4089.67741935,0,3731.29032258,0,4099.35483871,0,4109.03225806,0,4092.90322581,0,4375.16129032,0,4120.96774194,0,4807.09677419,0,4070.32258065,0,0,0,?
2017-11-11 16:18:39.946797,4068.06451613,0,4086.77419355,0,4176.4516129,0,4095.16129032,0,4089.67741935,0,4093.87096774,0,3750.0,0,4094.19354839,0,4109.03225806,0,4087.41935484,0,4364.83870968,0,4116.77419355,0,4849.35483871,0,4070.96774194,0,0,0,?
2017-11-11 16:18:39.946822,4069.35483871,0,4089.03225806,0,4175.48387097,0,4095.16129032,0,4096.4516129,0,4086.77419355,0,3759.03225806,0,4090.32258065,0,4109.35483871,0,4089.35483871,0,4374.19354839,0,4120.64516129,0,4853.22580645,0,4078.70967742,0,0,0,?
2017-11-11 16:18:39.946873,4078.38709677,0,4090.32258065,0,4185.48387097,0,4095.16129032,0,4095.80645161,0,4077.74193548,0,3759.67741935,0,4089.03225806,0,4110.32258065,0,4090.64516129,0,4392.25806452,0,4126.77419355,0,4811.29032258,0,4083.87096774,0,0,0,?
2017-11-11 16:18:39.946885,4079.35483871,0,4082.90322581,0,4189.35483871,0,4098.06451613,0,4087.41935484,0,4080.0,0,3766.4516129,0,4090.96774194,0,4112.58064516,0,4079.67741935,0,4389.03225806,0,4126.12903226,0,4806.4516129,0,4075.80645161,0,0,0,?
2017-11-11 16:18:39.946991,4075.16129032,0,4074.83870968,0,4186.77419355,0,4100.64516129,0,4080.0,0,4091.29032258,0,3770.32258065,0,4093.5483871,0,4065.16129032,0,4061.61290323,0,4366.4516129,0,4120.0,0,4842.58064516,0,4062.58064516,0,0,0,?
2017-11-11 16:18:39.947003,4078.38709677,0,4078.38709677,0,4188.70967742,0,4097.41935484,0,4080.96774194,0,4097.74193548,0,3749.35483871,0,4093.22580645,0,4066.4516129,0,4054.51612903,0,4360.0,0,4117.41935484,0,4838.70967742,0,4060.32258065,0,0,0,?
2017-11-11 16:18:39.947072,4085.48387097,0,4088.70967742,0,4193.22580645,0,4091.61290323,0,4087.74193548,0,4095.80645161,0,3714.19354839,0,4091.93548387,0,4065.48387097,0,4061.93548387,0,4385.48387097,0,4120.96774194,0,4849.35483871,0,4069.03225806,0,0,0,?
2017-11-11 16:18:39.947085,4084.83870968,0,4093.87096774,0,4189.03225806,0,4090.32258065,0,4093.22580645,0,4091.61290323,0,3751.29032258,0,4093.87096774,0,4113.5483871,0,4073.22580645,0,4372.58064516,0,4124.19354839,0,4809.67741935,0,4077.41935484,0,0,0,?
2017-11-11 16:18:39.947153,4079.67741935,0,4093.5483871,0,4183.22580645,0,4094.83870968,0,4095.80645161,0,4086.12903226,0,3718.70967742,0,4098.06451613,0,4112.90322581,0,4083.87096774,0,4400.0,0,4126.12903226,0,4811.93548387,0,4083.5483871,0,0,0,?
2017-11-11 16:18:39.947166,4086.77419355,0,4097.74193548,0,4192.25806452,0,4097.41935484,0,4098.06451613,0,4074.19354839,0,3737.41935484,0,4100.0,0,4064.83870968,0,4100.0,0,4417.09677419,0,4130.64516129,0,4814.19354839,0,4095.48387097,0,0,0,?
2017-11-11 16:18:39.947287,4103.87096774,0,4104.83870968,0,4165.48387097,0,4091.93548387,0,4098.38709677,0,4060.0,0,3734.83870968,0,4096.77419355,0,4068.38709677,0,4067.09677419,0,4422.25806452,0,4136.12903226,0,4820.32258065,0,4110.64516129,0,0,0,?
2017-11-11 16:18:39.947312,4109.67741935,0,4103.87096774,0,4180.96774194,0,4083.5483871,0,4093.5483871,0,4054.83870968,0,3720.96774194,0,4091.93548387,0,4070.32258065,0,4070.32258065,0,4406.77419355,0,4136.4516129,0,4818.70967742,0,4065.16129032,0,0,0,?
2017-11-11 16:18:39.947355,4097.41935484,0,4094.83870968,0,4178.06451613,0,4078.70967742,0,4087.09677419,0,4061.93548387,0,3709.67741935,0,4089.67741935,0,4070.0,0,4106.12903226,0,4378.06451613,0,4130.64516129,0,4856.4516129,0,4105.80645161,0,0,0,?
2017-11-11 16:18:39.947424,4086.4516129,0,4092.58064516,0,4169.03225806,0,4080.0,0,4087.74193548,0,4072.25806452,0,3745.80645161,0,4089.03225806,0,4068.38709677,0,4087.74193548,0,4366.77419355,0,4127.41935484,0,4847.41935484,0,4093.5483871,0,0,0,?
2017-11-11 16:18:39.947454,4089.67741935,0,4101.29032258,0,4164.19354839,0,4086.12903226,0,4096.4516129,0,4080.96774194,0,3730.64516129,0,4087.41935484,0,4066.77419355,0,4079.35483871,0,4384.83870968,0,4128.70967742,0,4850.96774194,0,4087.74193548,0,0,0,?
2017-11-11 16:18:39.947467,4095.80645161,0,4106.4516129,0,4208.70967742,0,4093.22580645,0,4101.29032258,0,4088.70967742,0,3735.80645161,0,4087.41935484,0,4065.48387097,0,4083.5483871,0,4402.90322581,0,4130.0,0,4806.4516129,0,4084.51612903,0,0,0,?
2017-11-11 16:18:39.947506,4090.96774194,0,4096.4516129,0,4199.35483871,0,4094.19354839,0,4093.22580645,0,4091.29032258,0,3715.48387097,0,4092.58064516,0,4065.80645161,0,4097.41935484,0,4392.25806452,0,4129.03225806,0,4853.87096774,0,4081.61290323,0,0,0,?
2017-11-11 16:18:39.947550,4086.4516129,0,4081.93548387,0,4199.03225806,0,4086.77419355,0,4078.06451613,0,4085.16129032,0,3736.77419355,0,4099.67741935,0,4067.74193548,0,4066.12903226,0,4365.16129032,0,4130.0,0,4850.32258065,0,4085.16129032,0,0,0,?
2017-11-11 16:18:39.947623,4113.22580645,0,4090.96774194,0,4170.64516129,0,4083.22580645,0,4076.12903226,0,4096.4516129,0,3751.61290323,0,4094.51612903,0,4067.74193548,0,4109.35483871,0,4395.16129032,0,4133.87096774,0,4810.96774194,0,4099.03225806,0,0,0,?
2017-11-11 16:18:39.947640,4113.22580645,0,4090.96774194,0,4170.64516129,0,4083.22580645,0,4076.12903226,0,4096.4516129,0,3751.61290323,0,4094.51612903,0,4067.74193548,0,4109.35483871,0,4395.16129032,0,4133.87096774,0,4810.96774194,0,4099.03225806,0,0,0,?
2017-11-11 16:18:39.947720,4114.19354839,0,4099.35483871,0,4206.4516129,0,4099.03225806,0,4086.77419355,0,4073.87096774,0,3757.41935484,0,4088.38709677,0,4065.16129032,0,4076.4516129,0,4381.29032258,0,4127.41935484,0,4806.4516129,0,4087.41935484,0,0,0,?
2017-11-11 16:18:39.947735,4101.29032258,0,4102.58064516,0,4180.0,0,4113.87096774,0,4095.48387097,0,4089.67741935,0,3738.70967742,0,4087.41935484,0,4114.19354839,0,4054.83870968,0,4360.32258065,0,4121.61290323,0,4847.41935484,0,4072.25806452,0,0,0,?
2017-11-11 16:18:39.947875,4092.25806452,0,4106.4516129,0,4163.87096774,0,4068.70967742,0,4101.61290323,0,4085.48387097,0,3762.25806452,0,4089.35483871,0,4064.83870968,0,4057.74193548,0,4349.03225806,0,4121.29032258,0,4846.77419355,0,4067.09677419,0,0,0,?
2017-11-11 16:18:39.947889,4090.32258065,0,4109.03225806,0,4162.25806452,0,4067.09677419,0,4103.87096774,0,4075.48387097,0,3765.80645161,0,4090.64516129,0,4066.77419355,0,4069.67741935,0,4343.87096774,0,4120.64516129,0,4852.90322581,0,4069.03225806,0,0,0,?
2017-11-11 16:18:39.947952,4083.22580645,0,4099.67741935,0,4163.22580645,0,4114.19354839,0,4098.06451613,0,4069.67741935,0,3766.77419355,0,4092.58064516,0,4067.41935484,0,4075.80645161,0,4327.09677419,0,4117.74193548,0,4856.12903226,0,4068.70967742,0,0,0,?
2017-11-11 16:18:39.947997,4071.61290323,0,4082.25806452,0,4165.48387097,0,4106.77419355,0,4085.80645161,0,4109.67741935,0,3773.22580645,0,4096.77419355,0,4066.4516129,0,4081.29032258,0,4353.87096774,0,4119.67741935,0,4807.74193548,0,4068.06451613,0,0,0,?
2017-11-11 16:18:39.948107,4072.25806452,0,4072.58064516,0,4177.09677419,0,4096.12903226,0,4078.06451613,0,4090.32258065,0,3774.51612903,0,4098.70967742,0,4065.16129032,0,4092.25806452,0,4350.64516129,0,4130.64516129,0,4818.70967742,0,4074.83870968,0,0,0,?
2017-11-11 16:18:39.948180,4087.09677419,0,4077.41935484,0,4191.93548387,0,4089.35483871,0,4081.29032258,0,4075.16129032,0,3772.25806452,0,4095.48387097,0,4114.51612903,0,4100.96774194,0,4370.96774194,0,4142.25806452,0,4831.29032258,0,4083.87096774,0,0,0,?
2017-11-11 16:18:39.948255,4095.80645161,0,4084.19354839,0,4192.90322581,0,4089.03225806,0,4088.70967742,0,4073.87096774,0,3782.25806452,0,4093.5483871,0,4064.51612903,0,4099.67741935,0,4337.74193548,0,4144.19354839,0,4828.06451613,0,4085.80645161,0,0,0,?
2017-11-11 16:18:39.948347,4086.77419355,0,4084.19354839,0,4180.0,0,4089.67741935,0,4090.64516129,0,4075.16129032,0,3749.03225806,0,4098.38709677,0,4066.12903226,0,4097.09677419,0,4335.80645161,0,4138.06451613,0,4810.0,0,4083.22580645,0,0,0,?
2017-11-11 16:18:39.948427,4076.77419355,0,4085.16129032,0,4172.90322581,0,4087.41935484,0,4089.03225806,0,4069.03225806,0,3746.4516129,0,4106.4516129,0,4068.06451613,0,4101.93548387,0,4330.96774194,0,4132.25806452,0,4847.74193548,0,4088.70967742,0,0,0,?
2017-11-11 16:18:39.948544,4081.29032258,0,4093.5483871,0,4178.06451613,0,4089.03225806,0,4091.61290323,0,4066.77419355,0,3770.32258065,0,4108.06451613,0,4069.03225806,0,4103.5483871,0,4337.41935484,0,4127.74193548,0,4850.96774194,0,4100.96774194,0,0,0,?
2017-11-11 16:18:39.948594,4083.87096774,0,4096.12903226,0,4171.29032258,0,4110.0,0,4095.16129032,0,4092.58064516,0,3769.03225806,0,4096.4516129,0,4067.41935484,0,4078.70967742,0,4334.83870968,0,4115.16129032,0,4853.22580645,0,4098.38709677,0,0,0,?
2017-11-11 16:18:39.948637,4083.87096774,0,4096.12903226,0,4171.29032258,0,4110.0,0,4095.16129032,0,4092.58064516,0,3769.03225806,0,4096.4516129,0,4067.41935484,0,4078.70967742,0,4334.83870968,0,4115.16129032,0,4853.22580645,0,4098.38709677,0,0,0,?
2017-11-11 16:18:39.948669,4074.51612903,0,4089.35483871,0,4163.22580645,0,4107.41935484,0,4088.38709677,0,4088.06451613,0,3791.93548387,0,4095.48387097,0,4066.77419355,0,4085.80645161,0,4330.0,0,4120.64516129,0,4849.67741935,0,4092.25806452,0,0,0,?
2017-11-11 16:18:39.948694,4074.83870968,0,4090.96774194,0,4169.03225806,0,4093.87096774,0,4082.58064516,0,4072.25806452,0,3791.93548387,0,4096.77419355,0,4066.77419355,0,4107.09677419,0,4343.22580645,0,4133.5483871,0,4853.87096774,0,4094.51612903,0,0,0,?
2017-11-11 16:18:39.948820,4081.61290323,0,4096.77419355,0,4179.67741935,0,4084.19354839,0,4081.29032258,0,4068.38709677,0,3775.48387097,0,4098.38709677,0,4066.77419355,0,4066.4516129,0,4358.70967742,0,4140.0,0,4856.12903226,0,4096.12903226,0,0,0,?
2017-11-11 16:18:39.948833,4081.29032258,0,4095.16129032,0,4180.64516129,0,4087.09677419,0,4082.90322581,0,4081.61290323,0,3767.09677419,0,4102.25806452,0,4065.80645161,0,4103.87096774,0,4352.58064516,0,4133.87096774,0,4846.4516129,0,4090.32258065,0,0,0,?
2017-11-11 16:18:39.948857,4076.4516129,0,4088.38709677,0,4175.80645161,0,4095.48387097,0,4085.48387097,0,4092.25806452,0,3768.38709677,0,4107.41935484,0,4114.51612903,0,4086.4516129,0,4333.5483871,0,4125.16129032,0,4836.77419355,0,4084.19354839,0,0,0,?
2017-11-11 16:18:39.948880,4078.70967742,0,4085.80645161,0,4175.16129032,0,4100.32258065,0,4088.70967742,0,4088.06451613,0,3766.12903226,0,4110.0,0,4113.5483871,0,4081.29032258,0,4327.41935484,0,4123.87096774,0,4842.58064516,0,4086.12903226,0,0,0,?
2017-11-11 16:18:39.948948,4083.87096774,0,4087.41935484,0,4176.77419355,0,4100.0,0,4088.38709677,0,4080.32258065,0,3765.48387097,0,4107.41935484,0,4113.87096774,0,4085.16129032,0,4337.41935484,0,4128.06451613,0,4856.4516129,0,4090.0,0,0,0,?
2017-11-11 16:18:39.948960,4081.29032258,0,4087.74193548,0,4172.90322581,0,4097.41935484,0,4081.93548387,0,4084.51612903,0,3778.70967742,0,4102.90322581,0,4065.48387097,0,4087.09677419,0,4342.25806452,0,4130.96774194,0,4809.67741935,0,4087.09677419,0,0,0,?
2017-11-11 16:18:39.949000,4075.80645161,0,4089.03225806,0,4172.58064516,0,4093.5483871,0,4073.87096774,0,4095.80645161,0,3742.90322581,0,4100.0,0,4067.09677419,0,4089.03225806,0,4334.83870968,0,4131.61290323,0,4853.5483871,0,4082.90322581,0,0,0,?
2017-11-11 16:18:39.949052,4082.25806452,0,4097.74193548,0,4188.06451613,0,4087.09677419,0,4072.25806452,0,4100.64516129,0,3783.5483871,0,4098.38709677,0,4068.06451613,0,4098.38709677,0,4330.64516129,0,4135.16129032,0,4854.51612903,0,4089.35483871,0,0,0,?
2017-11-11 16:18:39.949081,4096.12903226,0,4106.4516129,0,4209.35483871,0,4081.29032258,0,4077.41935484,0,4094.83870968,0,3755.80645161,0,4098.70967742,0,4067.74193548,0,4111.29032258,0,4335.48387097,0,4139.03225806,0,4816.4516129,0,4101.61290323,0,0,0,?
2017-11-11 16:18:39.951000,4099.67741935,0,4103.22580645,0,4162.90322581,0,4081.93548387,0,4083.5483871,0,4086.77419355,0,3745.16129032,0,4101.29032258,0,4066.77419355,0,4064.83870968,0,4335.48387097,0,4137.74193548,0,4823.87096774,0,4105.48387097,0,0,0,?
2017-11-11 16:18:39.951298,4092.58064516,0,4092.58064516,0,4197.74193548,0,4088.06451613,0,4089.03225806,0,4080.96774194,0,3762.90322581,0,4103.5483871,0,4066.12903226,0,4110.96774194,0,4326.77419355,0,4132.90322581,0,4819.67741935,0,4098.38709677,0,0,0,?
2017-11-11 16:18:39.951346,4091.29032258,0,4090.96774194,0,4183.87096774,0,4092.58064516,0,4095.80645161,0,4073.87096774,0,3782.58064516,0,4101.29032258,0,4065.48387097,0,4110.0,0,4324.51612903,0,4131.93548387,0,4815.48387097,0,4093.87096774,0,0,0,?
2017-11-11 16:18:39.951382,4100.0,0,4100.0,0,4183.87096774,0,4091.61290323,0,4100.0,0,4068.70967742,0,3784.19354839,0,4095.16129032,0,4065.48387097,0,4065.16129032,0,4332.90322581,0,4135.80645161,0,4818.70967742,0,4097.74193548,0,0,0,?
2017-11-11 16:18:39.951432,4102.90322581,0,4103.5483871,0,4187.09677419,0,4088.70967742,0,4095.16129032,0,4072.25806452,0,3782.25806452,0,4091.93548387,0,4065.80645161,0,4065.80645161,0,4333.5483871,0,4137.41935484,0,4819.35483871,0,4100.0,0,0,0,?
2017-11-11 16:18:39.951506,4094.51612903,0,4094.83870968,0,4185.16129032,0,4088.70967742,0,4084.83870968,0,4084.83870968,0,3742.58064516,0,4095.16129032,0,4066.77419355,0,4107.74193548,0,4366.77419355,0,4132.90322581,0,4810.64516129,0,4093.87096774,0,0,0,?
2017-11-11 16:18:39.951538,4088.38709677,0,4085.16129032,0,4185.48387097,0,4091.61290323,0,4080.64516129,0,4093.22580645,0,3754.51612903,0,4100.64516129,0,4067.41935484,0,4098.70967742,0,4353.87096774,0,4128.38709677,0,4854.83870968,0,4087.41935484,0,0,0,?
2017-11-11 16:18:39.951621,4092.25806452,0,4083.87096774,0,4190.64516129,0,4092.90322581,0,4086.77419355,0,4089.67741935,0,3755.16129032,0,4103.22580645,0,4067.74193548,0,4096.4516129,0,4363.5483871,0,4129.35483871,0,4810.32258065,0,4087.74193548,0,0,0,?
2017-11-11 16:18:39.951637,4091.61290323,0,4084.83870968,0,4187.41935484,0,4093.5483871,0,4095.16129032,0,4080.64516129,0,3755.80645161,0,4102.25806452,0,4067.09677419,0,4093.87096774,0,4330.32258065,0,4131.29032258,0,4817.09677419,0,4087.09677419,0,0,0,?
2017-11-11 16:18:39.951772,4077.41935484,0,4081.93548387,0,4169.35483871,0,4095.80645161,0,4100.0,0,4077.09677419,0,3767.41935484,0,4101.29032258,0,4065.80645161,0,4083.87096774,0,4329.67741935,0,4128.38709677,0,4812.25806452,0,4080.0,0,0,0,?
2017-11-11 16:18:39.951829,4065.16129032,0,4082.90322581,0,4153.5483871,0,4097.41935484,0,4101.93548387,0,4079.03225806,0,3772.58064516,0,4100.32258065,0,4114.51612903,0,4073.22580645,0,4366.12903226,0,4122.90322581,0,4852.58064516,0,4074.51612903,0,0,0,?
2017-11-11 16:18:39.951958,4070.0,0,4091.29032258,0,4156.77419355,0,4094.83870968,0,4101.29032258,0,4080.0,0,3753.87096774,0,4098.70967742,0,4114.51612903,0,4072.58064516,0,4361.29032258,0,4121.61290323,0,4850.64516129,0,4078.70967742,0,0,0,?
2017-11-11 16:18:39.951969,4081.93548387,0,4096.4516129,0,4170.0,0,4089.03225806,0,4095.48387097,0,4078.70967742,0,3780.0,0,4098.38709677,0,4065.80645161,0,4079.35483871,0,4366.4516129,0,4123.22580645,0,4852.90322581,0,4086.4516129,0,0,0,?
2017-11-11 16:18:39.952005,4082.90322581,0,4088.70967742,0,4174.19354839,0,4086.4516129,0,4085.16129032,0,4079.67741935,0,3781.29032258,0,4100.0,0,4068.38709677,0,4082.25806452,0,4364.83870968,0,4120.96774194,0,4847.74193548,0,4086.12903226,0,0,0,?
2017-11-11 16:18:39.952054,4077.41935484,0,4078.06451613,0,4170.96774194,0,4089.67741935,0,4079.35483871,0,4082.90322581,0,3752.25806452,0,4100.64516129,0,4070.96774194,0,4080.96774194,0,4358.70967742,0,4116.4516129,0,4837.74193548,0,4080.32258065,0,0,0,?
2017-11-11 16:18:39.952134,4080.0,0,4080.0,0,4173.5483871,0,4093.87096774,0,4082.25806452,0,4084.83870968,0,3758.70967742,0,4098.70967742,0,4071.93548387,0,4084.19354839,0,4367.74193548,0,4115.48387097,0,4838.06451613,0,4080.0,0,0,0,?
2017-11-11 16:18:39.952225,4086.4516129,0,4091.61290323,0,4181.93548387,0,4094.83870968,0,4088.06451613,0,4084.83870968,0,3790.0,0,4097.09677419,0,4070.96774194,0,4091.93548387,0,4341.29032258,0,4118.70967742,0,4849.35483871,0,4084.51612903,0,0,0,?
2017-11-11 16:18:39.952368,4082.58064516,0,4098.06451613,0,4183.5483871,0,4093.22580645,0,4088.70967742,0,4086.12903226,0,3766.77419355,0,4099.67741935,0,4068.06451613,0,4096.77419355,0,4357.74193548,0,4122.58064516,0,4807.09677419,0,4086.12903226,0,0,0,?
2017-11-11 16:18:39.952384,4073.5483871,0,4096.77419355,0,4181.29032258,0,4090.0,0,4088.06451613,0,4084.51612903,0,3753.5483871,0,4103.87096774,0,4064.83870968,0,4098.70967742,0,4359.67741935,0,4125.48387097,0,4807.09677419,0,4086.12903226,0,0,0,?
2017-11-11 16:18:39.952474,4078.06451613,0,4097.74193548,0,4188.38709677,0,4085.16129032,0,4092.90322581,0,4074.83870968,0,3742.58064516,0,4102.25806452,0,4112.58064516,0,4106.77419355,0,4364.83870968,0,4131.61290323,0,4810.32258065,0,4093.22580645,0,0,0,?
2017-11-11 16:18:39.952490,4094.51612903,0,4100.96774194,0,4204.19354839,0,4080.96774194,0,4100.96774194,0,4062.58064516,0,3733.87096774,0,4094.19354839,0,4111.29032258,0,4070.32258065,0,4378.38709677,0,4140.64516129,0,4819.35483871,0,4104.51612903,0,0,0,?
2017-11-11 16:18:39.952617,4103.22580645,0,4098.06451613,0,4161.29032258,0,4082.58064516,0,4103.87096774,0,4061.61290323,0,3743.5483871,0,4086.77419355,0,4111.93548387,0,4076.77419355,0,4378.38709677,0,4146.4516129,0,4821.29032258,0,4107.41935484,0,0,0,?
2017-11-11 16:18:39.952631,4096.4516129,0,4089.67741935,0,4206.4516129,0,4090.64516129,0,4100.0,0,4075.16129032,0,3768.38709677,0,4085.80645161,0,4113.87096774,0,4068.70967742,0,4352.90322581,0,4146.4516129,0,4810.96774194,0,4100.64516129,0,0,0,?
2017-11-11 16:18:39.952655,4090.64516129,0,4089.67741935,0,4201.61290323,0,4098.38709677,0,4094.51612903,0,4090.96774194,0,3777.74193548,0,4090.0,0,4067.09677419,0,4105.80645161,0,4326.77419355,0,4145.16129032,0,4852.25806452,0,4096.4516129,0,0,0,?
2017-11-11 16:18:39.952684,4094.19354839,0,4100.32258065,0,4202.58064516,0,4099.35483871,0,4091.29032258,0,4097.09677419,0,3759.35483871,0,4095.48387097,0,4070.0,0,4099.03225806,0,4323.87096774,0,4145.80645161,0,4855.16129032,0,4099.03225806,0,0,0,?
2017-11-11 16:18:39.952742,4095.16129032,0,4106.77419355,0,4196.77419355,0,4095.16129032,0,4087.74193548,0,4095.16129032,0,3742.90322581,0,4100.96774194,0,4070.96774194,0,4097.74193548,0,4333.87096774,0,4144.51612903,0,4810.96774194,0,4099.03225806,0,0,0,?
2017-11-11 16:18:39.952754,4086.4516129,0,4099.03225806,0,4179.67741935,0,4091.61290323,0,4085.80645161,0,4092.58064516,0,3755.48387097,0,4105.48387097,0,4068.38709677,0,4095.80645161,0,4332.90322581,0,4137.74193548,0,4807.41935484,0,4091.93548387,0,0,0,?
2017-11-11 16:18:39.952849,4081.29032258,0,4087.74193548,0,4168.06451613,0,4089.67741935,0,4090.0,0,4090.32258065,0,3780.96774194,0,4105.80645161,0,4113.87096774,0,4095.80645161,0,4370.64516129,0,4131.61290323,0,4851.61290323,0,4087.74193548,0,0,0,?
2017-11-11 16:18:39.952863,4089.35483871,0,4084.19354839,0,4174.19354839,0,4087.09677419,0,4097.74193548,0,4086.4516129,0,3790.32258065,0,4101.29032258,0,4109.67741935,0,4100.32258065,0,4360.64516129,0,4131.93548387,0,4854.51612903,0,4092.25806452,0,0,0,?
2017-11-11 16:18:39.952891,4096.77419355,0,4084.83870968,0,4185.16129032,0,4085.16129032,0,4098.06451613,0,4083.22580645,0,3786.12903226,0,4096.12903226,0,4109.03225806,0,4101.93548387,0,4350.96774194,0,4135.80645161,0,4812.25806452,0,4095.48387097,0,0,0,?
2017-11-11 16:18:39.952915,4089.03225806,0,4081.93548387,0,4183.87096774,0,4087.74193548,0,4087.74193548,0,4085.16129032,0,3791.93548387,0,4095.16129032,0,4112.25806452,0,4093.22580645,0,4332.25806452,0,4135.80645161,0,4812.25806452,0,4085.48387097,0,0,0,?
2017-11-11 16:18:39.953021,4075.16129032,0,4080.0,0,4175.16129032,0,4093.22580645,0,4076.4516129,0,4088.06451613,0,3757.09677419,0,4096.77419355,0,4066.12903226,0,4080.96774194,0,4317.74193548,0,4132.90322581,0,4807.09677419,0,4069.03225806,0,0,0,?
2017-11-11 16:18:39.953040,4070.64516129,0,4084.19354839,0,4172.25806452,0,4097.09677419,0,4074.83870968,0,4085.80645161,0,3764.83870968,0,4097.41935484,0,4068.06451613,0,4077.74193548,0,4329.67741935,0,4131.93548387,0,4809.35483871,0,4059.67741935,0,0,0,?
2017-11-11 16:18:39.953111,4071.61290323,0,4086.12903226,0,4172.90322581,0,4096.4516129,0,4081.93548387,0,4082.25806452,0,3764.83870968,0,4097.41935484,0,4067.09677419,0,4083.5483871,0,4359.03225806,0,4132.90322581,0,4816.4516129,0,4059.03225806,0,0,0,?
2017-11-11 16:18:39.953160,4065.48387097,0,4076.4516129,0,4166.12903226,0,4094.83870968,0,4089.67741935,0,4084.83870968,0,3770.0,0,4099.03225806,0,4064.83870968,0,4086.4516129,0,4372.25806452,0,4129.67741935,0,4815.16129032,0,4060.64516129,0,0,0,?
2017-11-11 16:18:39.953288,4059.67741935,0,4064.51612903,0,4158.70967742,0,4092.90322581,0,4096.12903226,0,4090.32258065,0,3774.51612903,0,4100.64516129,0,4113.87096774,0,4083.22580645,0,4360.96774194,0,4123.22580645,0,4855.80645161,0,4067.74193548,0,0,0,?
2017-11-11 16:18:39.953307,4070.0,0,4067.09677419,0,4166.12903226,0,4088.38709677,0,4100.96774194,0,4088.06451613,0,3756.4516129,0,4098.70967742,0,4114.51612903,0,4082.90322581,0,4351.93548387,0,4120.32258065,0,4853.5483871,0,4085.80645161,0,0,0,?
2017-11-11 16:18:39.953349,4091.61290323,0,4083.22580645,0,4183.87096774,0,4081.93548387,0,4100.32258065,0,4078.06451613,0,3771.61290323,0,4094.83870968,0,4066.12903226,0,4089.67741935,0,4363.87096774,0,4122.25806452,0,4811.61290323,0,4104.83870968,0,0,0,?
2017-11-11 16:18:39.953362,4101.93548387,0,4097.09677419,0,4191.61290323,0,4078.06451613,0,4091.93548387,0,4070.32258065,0,3751.93548387,0,4093.87096774,0,4067.41935484,0,4095.16129032,0,4332.90322581,0,4124.51612903,0,4814.19354839,0,4107.09677419,0,0,0,?
2017-11-11 16:18:39.953399,4095.48387097,0,4102.90322581,0,4184.19354839,0,4080.32258065,0,4082.25806452,0,4070.96774194,0,3762.25806452,0,4097.74193548,0,4067.74193548,0,4094.19354839,0,4342.90322581,0,4124.51612903,0,4854.19354839,0,4093.87096774,0,0,0,?
2017-11-11 16:18:39.953412,4090.64516129,0,4108.38709677,0,4177.74193548,0,4085.80645161,0,4081.29032258,0,4073.22580645,0,3777.74193548,0,4102.25806452,0,4067.41935484,0,4094.51612903,0,4350.32258065,0,4126.4516129,0,4844.83870968,0,4084.83870968,0,0,0,?
2017-11-11 16:18:39.953510,4094.83870968,0,4114.51612903,0,4181.93548387,0,4088.70967742,0,4088.06451613,0,4071.93548387,0,3779.35483871,0,4103.5483871,0,4067.41935484,0,4101.61290323,0,4359.67741935,0,4131.29032258,0,4848.06451613,0,4090.96774194,0,0,0,?
2017-11-11 16:18:39.953527,4095.16129032,0,4111.61290323,0,4185.48387097,0,4089.03225806,0,4093.22580645,0,4071.29032258,0,3779.67741935,0,4102.58064516,0,4068.06451613,0,4108.38709677,0,4357.74193548,0,4132.58064516,0,4854.83870968,0,4101.29032258,0,0,0,?
2017-11-11 16:18:39.953681,4084.83870968,0,4098.06451613,0,4181.61290323,0,4089.03225806,0,4092.58064516,0,4075.16129032,0,3791.93548387,0,4101.29032258,0,4068.38709677,0,4107.41935484,0,4339.35483871,0,4127.74193548,0,4854.19354839,0,4102.90322581,0,0,0,?
2017-11-11 16:18:39.953746,4079.03225806,0,4089.03225806,0,4181.29032258,0,4089.03225806,0,4091.93548387,0,4079.03225806,0,3751.93548387,0,4099.35483871,0,4067.09677419,0,4103.22580645,0,4327.41935484,0,4125.16129032,0,4852.58064516,0,4098.70967742,0,0,0,?
2017-11-11 16:18:39.953820,4088.70967742,0,4090.96774194,0,4190.96774194,0,4087.09677419,0,4094.83870968,0,4079.67741935,0,3743.87096774,0,4096.4516129,0,4064.83870968,0,4102.25806452,0,4341.61290323,0,4131.29032258,0,4807.41935484,0,4094.83870968,0,0,0,?
2017-11-11 16:18:39.953838,4100.64516129,0,4093.87096774,0,4197.74193548,0,4085.48387097,0,4096.12903226,0,4081.29032258,0,3780.96774194,0,4096.4516129,0,4112.58064516,0,4100.32258065,0,4363.87096774,0,4139.35483871,0,4810.64516129,0,4088.70967742,0,0,0,?
2017-11-11 16:18:39.953887,4099.35483871,0,4089.67741935,0,4191.29032258,0,4087.74193548,0,4092.58064516,0,4088.70967742,0,3780.32258065,0,4100.96774194,0,4111.61290323,0,4091.29032258,0,4363.5483871,0,4139.03225806,0,4852.25806452,0,4077.74193548,0,0,0,?
2017-11-11 16:18:39.953899,4091.93548387,0,4086.4516129,0,4181.61290323,0,4092.25806452,0,4088.38709677,0,4095.80645161,0,3780.96774194,0,4106.4516129,0,4112.25806452,0,4081.61290323,0,4345.16129032,0,4130.64516129,0,4840.64516129,0,4071.61290323,0,0,0,?
2017-11-11 16:18:39.954034,4091.29032258,0,4091.29032258,0,4183.22580645,0,4094.51612903,0,4086.4516129,0,4094.83870968,0,3766.4516129,0,4107.74193548,0,4113.87096774,0,4080.96774194,0,4335.48387097,0,4124.19354839,0,4843.5483871,0,4078.70967742,0,0,0,?
2017-11-11 16:18:39.954046,4091.61290323,0,4094.19354839,0,4188.06451613,0,4094.19354839,0,4084.51612903,0,4090.64516129,0,3750.0,0,4104.83870968,0,4064.83870968,0,4088.38709677,0,4339.03225806,0,4123.22580645,0,4807.09677419,0,4089.35483871,0,0,0,?
2017-11-11 16:18:39.954134,4083.22580645,0,4084.83870968,0,4181.93548387,0,4094.19354839,0,4080.64516129,0,4091.93548387,0,3758.70967742,0,4102.25806452,0,4064.51612903,0,4093.87096774,0,4336.4516129,0,4124.51612903,0,4813.5483871,0,4090.0,0,0,0,?
2017-11-11 16:18:39.954153,4074.83870968,0,4072.25806452,0,4171.29032258,0,4095.80645161,0,4079.67741935,0,4097.74193548,0,3784.19354839,0,4100.32258065,0,4113.87096774,0,4096.4516129,0,4371.93548387,0,4126.12903226,0,4808.70967742,0,4083.5483871,0,0,0,?
2017-11-11 16:18:39.954221,4083.87096774,0,4072.25806452,0,4173.87096774,0,4095.16129032,0,4084.83870968,0,4097.74193548,0,3742.58064516,0,4097.74193548,0,4114.19354839,0,4103.5483871,0,4362.58064516,0,4129.35483871,0,4806.4516129,0,4083.22580645,0,0,0,?
2017-11-11 16:18:39.954248,4101.93548387,0,4083.22580645,0,4188.70967742,0,4091.29032258,0,4090.32258065,0,4090.96774194,0,3777.09677419,0,4097.09677419,0,4065.48387097,0,4064.51612903,0,4363.22580645,0,4132.58064516,0,4812.25806452,0,4089.67741935,0,0,0,?
2017-11-11 16:18:39.954360,4104.83870968,0,4090.0,0,4197.09677419,0,4088.38709677,0,4088.06451613,0,4086.77419355,0,3765.80645161,0,4100.32258065,0,4066.77419355,0,4069.67741935,0,4360.64516129,0,4131.61290323,0,4816.4516129,0,4091.29032258,0,0,0,?
2017-11-11 16:18:39.954372,4090.32258065,0,4091.29032258,0,4192.58064516,0,4089.03225806,0,4082.58064516,0,4087.74193548,0,3776.77419355,0,4105.48387097,0,4065.80645161,0,4064.83870968,0,4353.22580645,0,4128.70967742,0,4814.51612903,0,4085.16129032,0,0,0,?
2017-11-11 16:18:39.954451,4079.03225806,0,4097.09677419,0,4188.06451613,0,4090.32258065,0,4081.61290323,0,4086.4516129,0,3744.19354839,0,4105.80645161,0,4112.90322581,0,4109.03225806,0,4360.32258065,0,4130.64516129,0,4815.80645161,0,4082.58064516,0,0,0,?
2017-11-11 16:18:39.954509,4080.32258065,0,4107.09677419,0,4188.70967742,0,4089.67741935,0,4086.12903226,0,4079.35483871,0,3755.16129032,0,4100.64516129,0,4110.96774194,0,4107.74193548,0,4333.87096774,0,4137.74193548,0,4823.22580645,0,4088.06451613,0,0,0,?
2017-11-11 16:18:39.954555,4081.93548387,0,4107.74193548,0,4184.19354839,0,4088.70967742,0,4088.70967742,0,4073.22580645,0,3768.70967742,0,4095.48387097,0,4113.22580645,0,4105.48387097,0,4345.80645161,0,4140.32258065,0,4824.83870968,0,4091.93548387,0,0,0,?
2017-11-11 16:18:39.954572,4077.41935484,0,4095.48387097,0,4173.5483871,0,4090.64516129,0,4088.38709677,0,4072.90322581,0,3787.09677419,0,4094.83870968,0,4068.06451613,0,4097.74193548,0,4326.12903226,0,4133.5483871,0,4815.16129032,0,4089.35483871,0,0,0,?
2017-11-11 16:18:39.954694,4078.70967742,0,4084.51612903,0,4171.29032258,0,4093.5483871,0,4089.35483871,0,4073.87096774,0,3787.41935484,0,4096.4516129,0,4070.96774194,0,4090.96774194,0,4348.06451613,0,4125.16129032,0,4807.41935484,0,4086.12903226,0,0,0,?
2017-11-11 16:18:39.954776,4089.67741935,0,4082.90322581,0,4182.90322581,0,4093.5483871,0,4091.61290323,0,4071.93548387,0,3759.03225806,0,4097.09677419,0,4066.4516129,0,4091.61290323,0,4341.93548387,0,4124.19354839,0,4812.25806452,0,4086.4516129,0,0,0,?
2017-11-11 16:18:39.954810,4093.87096774,0,4084.19354839,0,4190.64516129,0,4091.61290323,0,4088.70967742,0,4071.93548387,0,3780.32258065,0,4097.41935484,0,4105.80645161,0,4092.25806452,0,4355.80645161,0,4126.77419355,0,4817.41935484,0,4083.5483871,0,0,0,?
2017-11-11 16:18:39.954832,4082.25806452,0,4083.5483871,0,4181.29032258,0,4092.25806452,0,4080.64516129,0,4078.38709677,0,3778.38709677,0,4099.35483871,0,4093.5483871,0,4085.80645161,0,4369.35483871,0,4125.80645161,0,4808.70967742,0,4075.16129032,0,0,0,?
2017-11-11 16:18:39.954865,4070.0,0,4088.70967742,0,4166.77419355,0,4094.83870968,0,4076.12903226,0,4085.80645161,0,3741.93548387,0,4100.0,0,4087.74193548,0,4077.41935484,0,4328.70967742,0,4121.93548387,0,4844.51612903,0,4073.5483871,0,0,0,?
2017-11-11 16:18:39.954880,4073.22580645,0,4101.29032258,0,4163.87096774,0,4095.48387097,0,4079.67741935,0,4085.80645161,0,3745.48387097,0,4098.70967742,0,4092.58064516,0,4076.77419355,0,4343.5483871,0,4119.35483871,0,4841.29032258,0,4085.48387097,0,0,0,?
2017-11-11 16:18:39.954954,4082.25806452,0,4106.4516129,0,4169.35483871,0,4093.5483871,0,4086.12903226,0,4081.29032258,0,3791.29032258,0,4098.38709677,0,4105.16129032,0,4081.93548387,0,4352.58064516,0,4119.35483871,0,4848.70967742,0,4099.03225806,0,0,0,?
2017-11-11 16:18:39.954993,4081.29032258,0,4093.22580645,0,4169.35483871,0,4092.58064516,0,4089.35483871,0,4079.67741935,0,3748.06451613,0,4101.61290323,0,4068.06451613,0,4082.58064516,0,4340.96774194,0,4119.67741935,0,4853.22580645,0,4099.03225806,0,0,0,?
2017-11-11 16:18:39.955121,4080.96774194,0,4069.67741935,0,4173.87096774,0,4093.87096774,0,4092.25806452,0,4081.29032258,0,3757.09677419,0,4102.25806452,0,4070.96774194,0,4081.93548387,0,4372.25806452,0,4129.35483871,0,4806.4516129,0,4081.61290323,0,0,0,?
2017-11-11 16:18:39.955142,4080.96774194,0,4069.67741935,0,4173.87096774,0,4093.87096774,0,4092.25806452,0,4081.29032258,0,3757.09677419,0,4102.25806452,0,4070.96774194,0,4081.93548387,0,4372.25806452,0,4129.35483871,0,4806.4516129,0,4081.61290323,0,0,0,?
2017-11-11 16:18:39.955210,4092.25806452,0,4080.32258065,0,4185.16129032,0,4091.61290323,0,4089.35483871,0,4080.64516129,0,3785.16129032,0,4098.06451613,0,4113.87096774,0,4089.67741935,0,4345.80645161,0,4138.38709677,0,4810.96774194,0,4082.25806452,0,0,0,?
2017-11-11 16:18:39.955346,4093.5483871,0,4091.93548387,0,4188.38709677,0,4089.67741935,0,4079.67741935,0,4085.48387097,0,3767.41935484,0,4097.74193548,0,4109.35483871,0,4094.19354839,0,4362.90322581,0,4141.29032258,0,4854.83870968,0,4082.90322581,0,0,0,?
2017-11-11 16:18:39.955397,4086.4516129,0,4099.35483871,0,4185.48387097,0,4088.70967742,0,4072.58064516,0,4092.58064516,0,3760.32258065,0,4102.25806452,0,4110.96774194,0,4093.87096774,0,4359.03225806,0,4139.03225806,0,4842.25806452,0,4084.19354839,0,0,0,?
2017-11-11 16:18:39.955424,4086.4516129,0,4106.12903226,0,4190.32258065,0,4085.16129032,0,4078.06451613,0,4091.93548387,0,3748.38709677,0,4105.80645161,0,4066.4516129,0,4098.38709677,0,4351.93548387,0,4139.03225806,0,4843.5483871,0,4092.58064516,0,0,0,?
2017-11-11 16:18:39.955508,4094.83870968,0,4110.0,0,4201.29032258,0,4078.38709677,0,4092.25806452,0,4081.61290323,0,3733.87096774,0,4105.80645161,0,4070.96774194,0,4109.35483871,0,4354.83870968,0,4143.5483871,0,4813.5483871,0,4103.5483871,0,0,0,?
2017-11-11 16:18:39.955528,4096.4516129,0,4102.90322581,0,4204.51612903,0,4073.5483871,0,4101.93548387,0,4072.90322581,0,3740.32258065,0,4104.19354839,0,4071.61290323,0,4067.09677419,0,4353.5483871,0,4146.4516129,0,4832.58064516,0,4105.48387097,0,0,0,?
2017-11-11 16:18:39.955611,4090.64516129,0,4090.64516129,0,4197.74193548,0,4075.80645161,0,4100.0,0,4074.51612903,0,3770.0,0,4103.5483871,0,4069.35483871,0,4064.83870968,0,4335.16129032,0,4143.22580645,0,4832.90322581,0,4098.06451613,0,0,0,?
2017-11-11 16:18:39.955672,4091.93548387,0,4088.70967742,0,4195.48387097,0,4083.22580645,0,4092.58064516,0,4081.29032258,0,3789.67741935,0,4102.90322581,0,4067.41935484,0,4109.67741935,0,4363.87096774,0,4138.70967742,0,4823.5483871,0,4094.51612903,0,0,0,?
2017-11-11 16:18:39.955766,4103.5483871,0,4098.70967742,0,4201.61290323,0,4090.0,0,4085.48387097,0,4085.80645161,0,3780.32258065,0,4102.25806452,0,4067.74193548,0,4105.80645161,0,4354.51612903,0,4137.74193548,0,4817.41935484,0,4100.0,0,0,0,?
2017-11-11 16:18:39.955797,4106.12903226,0,4103.87096774,0,4200.0,0,4093.5483871,0,4080.64516129,0,4088.38709677,0,3765.80645161,0,4103.22580645,0,4068.38709677,0,4099.67741935,0,4351.29032258,0,4138.38709677,0,4813.87096774,0,4101.93548387,0,0,0,?
2017-11-11 16:18:39.955896,4091.29032258,0,4095.80645161,0,4181.93548387,0,4095.16129032,0,4080.32258065,0,4090.64516129,0,3776.12903226,0,4104.83870968,0,4068.06451613,0,4089.03225806,0,4344.51612903,0,4135.80645161,0,4806.77419355,0,4091.93548387,0,0,0,?
2017-11-11 16:18:39.955938,4074.83870968,0,4086.12903226,0,4162.90322581,0,4094.19354839,0,4088.06451613,0,4089.03225806,0,3749.67741935,0,4103.5483871,0,4067.41935484,0,4083.87096774,0,4347.09677419,0,4132.25806452,0,4853.22580645,0,4080.0,0,0,0,?
2017-11-11 16:18:39.956032,4071.93548387,0,4085.80645161,0,4159.35483871,0,4090.64516129,0,4099.67741935,0,4082.90322581,0,3761.61290323,0,4097.41935484,0,4067.41935484,0,4090.96774194,0,4369.67741935,0,4132.25806452,0,4810.32258065,0,4077.74193548,0,0,0,?
2017-11-11 16:18:39.956044,4073.5483871,0,4087.74193548,0,4163.87096774,0,4088.70967742,0,4103.22580645,0,4079.03225806,0,3761.29032258,0,4091.29032258,0,4068.70967742,0,4100.64516129,0,4341.61290323,0,4132.58064516,0,4818.70967742,0,4079.35483871,0,0,0,?
2017-11-11 16:18:39.956080,4066.12903226,0,4083.5483871,0,4163.5483871,0,4092.58064516,0,4094.83870968,0,4083.87096774,0,3764.83870968,0,4091.29032258,0,4070.64516129,0,4098.70967742,0,4333.22580645,0,4128.38709677,0,4814.19354839,0,4075.16129032,0,0,0,?
2017-11-11 16:18:39.956116,4058.38709677,0,4078.06451613,0,4161.93548387,0,4100.32258065,0,4082.90322581,0,4091.29032258,0,3767.09677419,0,4095.80645161,0,4071.61290323,0,4086.12903226,0,4351.61290323,0,4122.58064516,0,4852.90322581,0,4068.70967742,0,0,0,?
2017-11-11 16:18:39.956256,4063.5483871,0,4079.67741935,0,4167.09677419,0,4104.83870968,0,4077.41935484,0,4091.61290323,0,3754.83870968,0,4098.70967742,0,4070.96774194,0,4075.48387097,0,4330.32258065,0,4121.93548387,0,4849.67741935,0,4069.35483871,0,0,0,?
2017-11-11 16:18:39.956343,4073.5483871,0,4081.93548387,0,4170.32258065,0,4103.5483871,0,4077.41935484,0,4085.48387097,0,3788.06451613,0,4099.35483871,0,4068.70967742,0,4071.29032258,0,4332.25806452,0,4124.51612903,0,4854.19354839,0,4073.87096774,0,0,0,?
2017-11-11 16:18:39.956420,4072.90322581,0,4076.4516129,0,4160.32258065,0,4100.32258065,0,4080.0,0,4082.90322581,0,3790.32258065,0,4100.32258065,0,4065.48387097,0,4070.32258065,0,4340.0,0,4123.5483871,0,4852.25806452,0,4074.51612903,0,0,0,?
2017-11-11 16:18:39.956435,4066.77419355,0,4071.93548387,0,4147.74193548,0,4096.4516129,0,4085.16129032,0,4085.80645161,0,3756.12903226,0,4102.90322581,0,4113.87096774,0,4072.58064516,0,4345.80645161,0,4119.03225806,0,4843.22580645,0,4074.83870968,0,0,0,?
2017-11-11 16:18:39.956508,4073.22580645,0,4081.29032258,0,4154.83870968,0,4090.96774194,0,4093.22580645,0,4087.09677419,0,3756.12903226,0,4103.22580645,0,4114.19354839,0,4084.51612903,0,4360.64516129,0,4118.06451613,0,4843.5483871,0,4084.83870968,0,0,0,?
2017-11-11 16:18:39.956638,4090.32258065,0,4099.03225806,0,4180.64516129,0,4084.83870968,0,4098.06451613,0,4083.5483871,0,3784.19354839,0,4100.32258065,0,4066.12903226,0,4101.29032258,0,4335.16129032,0,4122.58064516,0,4856.4516129,0,4100.0,0,0,0,?
2017-11-11 16:18:39.956737,4099.35483871,0,4107.09677419,0,4202.25806452,0,4083.87096774,0,4094.83870968,0,4079.03225806,0,3767.41935484,0,4097.41935484,0,4068.38709677,0,4109.35483871,0,4350.32258065,0,4126.4516129,0,4816.4516129,0,4104.19354839,0,0,0,?
2017-11-11 16:18:39.956746,4097.09677419,0,4101.29032258,0,4207.74193548,0,4090.0,0,4088.38709677,0,4076.12903226,0,3770.96774194,0,4096.12903226,0,4069.03225806,0,4104.83870968,0,4348.38709677,0,4126.77419355,0,4813.5483871,0,4094.83870968,0,0,0,?
2017-11-11 16:18:39.956790,4100.32258065,0,4095.48387097,0,4206.4516129,0,4097.74193548,0,4087.41935484,0,4070.32258065,0,3777.09677419,0,4095.48387097,0,4066.77419355,0,4100.64516129,0,4348.38709677,0,4128.70967742,0,4807.09677419,0,4087.09677419,0,0,0,?
2017-11-11 16:18:39.956850,4112.58064516,0,4095.48387097,0,4205.48387097,0,4100.32258065,0,4092.90322581,0,4063.5483871,0,3770.96774194,0,4096.12903226,0,4114.19354839,0,4105.16129032,0,4360.64516129,0,4134.19354839,0,4856.4516129,0,4090.32258065,0,0,0,?
2017-11-11 16:18:39.956991,4066.4516129,0,4093.87096774,0,4198.06451613,0,4097.09677419,0,4097.09677419,0,4064.51612903,0,3764.83870968,0,4100.0,0,4112.25806452,0,4111.29032258,0,4366.12903226,0,4138.06451613,0,4854.83870968,0,4097.41935484,0,0,0,?
2017-11-11 16:18:39.957043,4104.83870968,0,4087.09677419,0,4185.48387097,0,4091.93548387,0,4097.74193548,0,4077.09677419,0,3770.0,0,4105.80645161,0,4112.90322581,0,4108.38709677,0,4350.32258065,0,4136.4516129,0,4847.41935484,0,4100.32258065,0,0,0,?
2017-11-11 16:18:39.957082,4092.58064516,0,4084.83870968,0,4183.5483871,0,4087.09677419,0,4098.70967742,0,4090.96774194,0,3771.93548387,0,4108.06451613,0,4065.48387097,0,4100.96774194,0,4332.25806452,0,4133.87096774,0,4844.19354839,0,4102.58064516,0,0,0,?
2017-11-11 16:18:39.957107,4092.25806452,0,4091.29032258,0,4197.41935484,0,4083.5483871,0,4099.67741935,0,4095.80645161,0,3760.96774194,0,4102.90322581,0,4068.06451613,0,4096.77419355,0,4333.87096774,0,4136.12903226,0,4852.25806452,0,4105.48387097,0,0,0,?
2017-11-11 16:18:39.957339,4093.87096774,0,4095.16129032,0,4208.70967742,0,4083.87096774,0,4095.16129032,0,4093.87096774,0,3755.48387097,0,4095.48387097,0,4069.03225806,0,4093.87096774,0,4342.90322581,0,4139.35483871,0,4810.32258065,0,4101.29032258,0,0,0,?
2017-11-11 16:18:39.957353,4086.4516129,0,4088.70967742,0,4202.25806452,0,4090.0,0,4085.48387097,0,4092.90322581,0,3772.90322581,0,4092.25806452,0,4068.06451613,0,4087.09677419,0,4334.19354839,0,4136.4516129,0,4855.48387097,0,4086.12903226,0,0,0,?
2017-11-11 16:18:39.957465,4080.64516129,0,4082.25806452,0,4186.77419355,0,4096.77419355,0,4078.38709677,0,4092.90322581,0,3743.87096774,0,4093.87096774,0,4065.48387097,0,4081.93548387,0,4360.0,0,4128.70967742,0,4844.83870968,0,4072.90322581,0,0,0,?
2017-11-11 16:18:39.957504,4087.09677419,0,4087.41935484,0,4178.38709677,0,4097.09677419,0,4078.06451613,0,4090.0,0,3742.58064516,0,4096.4516129,0,4112.90322581,0,4084.83870968,0,4343.5483871,0,4122.90322581,0,4846.12903226,0,4072.58064516,0,0,0,?
2017-11-11 16:18:39.957637,4093.5483871,0,4096.4516129,0,4172.58064516,0,4091.93548387,0,4078.70967742,0,4086.4516129,0,3779.03225806,0,4100.0,0,4111.93548387,0,4091.29032258,0,4338.70967742,0,4120.0,0,4807.09677419,0,4077.41935484,0,0,0,?
2017-11-11 16:18:39.957716,4084.51612903,0,4095.80645161,0,4159.03225806,0,4088.70967742,0,4077.74193548,0,4088.06451613,0,3784.83870968,0,4104.19354839,0,4112.90322581,0,4091.29032258,0,4332.90322581,0,4119.35483871,0,4812.25806452,0,4074.51612903,0,0,0,?
2017-11-11 16:18:39.957811,4069.35483871,0,4088.70967742,0,4146.77419355,0,4091.29032258,0,4079.35483871,0,4092.58064516,0,3760.0,0,4105.80645161,0,4065.48387097,0,4086.12903226,0,4329.67741935,0,4122.58064516,0,4808.70967742,0,4066.77419355,0,0,0,?
2017-11-11 16:18:39.957847,4068.38709677,0,4086.12903226,0,4153.22580645,0,4094.51612903,0,4087.41935484,0,4091.93548387,0,3776.12903226,0,4101.61290323,0,4068.06451613,0,4086.77419355,0,4346.77419355,0,4132.58064516,0,4808.70967742,0,4066.4516129,0,0,0,?
2017-11-11 16:18:39.957895,4081.29032258,0,4088.06451613,0,4174.83870968,0,4093.5483871,0,4094.19354839,0,4086.4516129,0,3770.96774194,0,4095.16129032,0,4069.35483871,0,4094.51612903,0,4327.74193548,0,4142.90322581,0,4815.48387097,0,4074.51612903,0,0,0,?
2017-11-11 16:18:39.957911,4089.03225806,0,4086.12903226,0,4189.35483871,0,4090.0,0,4092.58064516,0,4083.87096774,0,3761.61290323,0,4092.58064516,0,4068.06451613,0,4099.67741935,0,4341.29032258,0,4143.5483871,0,4818.06451613,0,4079.67741935,0,0,0,?
2017-11-11 16:18:39.958051,4087.41935484,0,4084.51612903,0,4188.06451613,0,4087.74193548,0,4086.12903226,0,4085.48387097,0,3757.09677419,0,4095.80645161,0,4065.80645161,0,4097.41935484,0,4327.41935484,0,4135.16129032,0,4813.87096774,0,4080.32258065,0,0,0,?
2017-11-11 16:18:39.958065,4089.67741935,0,4093.5483871,0,4182.58064516,0,4086.77419355,0,4084.51612903,0,4082.25806452,0,3745.48387097,0,4099.67741935,0,4114.19354839,0,4095.48387097,0,4362.25806452,0,4127.74193548,0,4814.19354839,0,4085.48387097,0,0,0,?
2017-11-11 16:18:39.958128,4096.77419355,0,4108.06451613,0,4179.67741935,0,4085.48387097,0,4089.67741935,0,4071.61290323,0,3778.38709677,0,4101.29032258,0,4113.87096774,0,4097.09677419,0,4365.48387097,0,4126.4516129,0,4821.61290323,0,4096.12903226,0,0,0,?
2017-11-11 16:18:39.958141,4094.83870968,0,4110.0,0,4174.19354839,0,4085.16129032,0,4095.16129032,0,4063.87096774,0,3778.06451613,0,4101.93548387,0,4066.12903226,0,4095.48387097,0,4323.5483871,0,4126.77419355,0,4822.58064516,0,4100.64516129,0,0,0,?
2017-11-11 16:18:39.958215,4082.58064516,0,4096.12903226,0,4167.41935484,0,4086.12903226,0,4097.41935484,0,4066.4516129,0,3748.06451613,0,4102.90322581,0,4069.67741935,0,4087.41935484,0,4371.29032258,0,4124.51612903,0,4808.70967742,0,4095.80645161,0,0,0,?
2017-11-11 16:18:39.958253,4078.06451613,0,4083.22580645,0,4173.22580645,0,4086.4516129,0,4099.03225806,0,4073.22580645,0,3760.0,0,4102.25806452,0,4071.61290323,0,4082.58064516,0,4368.38709677,0,4124.19354839,0,4845.16129032,0,4092.25806452,0,0,0,?
2017-11-11 16:18:39.958283,4089.35483871,0,4084.83870968,0,4192.58064516,0,4084.19354839,0,4098.06451613,0,4075.48387097,0,3744.19354839,0,4100.64516129,0,4069.03225806,0,4087.41935484,0,4328.70967742,0,4128.06451613,0,4844.51612903,0,4096.12903226,0,0,0,?
2017-11-11 16:18:39.958296,4097.09677419,0,4093.5483871,0,4203.87096774,0,4083.5483871,0,4090.64516129,0,4075.80645161,0,3772.58064516,0,4100.96774194,0,4113.22580645,0,4094.51612903,0,4341.61290323,0,4129.67741935,0,4850.0,0,4098.38709677,0,0,0,?
2017-11-11 16:18:39.958401,4087.41935484,0,4098.70967742,0,4192.25806452,0,4089.03225806,0,4080.0,0,4078.70967742,0,3772.58064516,0,4103.5483871,0,4107.09677419,0,4093.22580645,0,4340.0,0,4124.19354839,0,4848.06451613,0,4090.64516129,0,0,0,?
2017-11-11 16:18:39.958417,4073.22580645,0,4101.61290323,0,4171.93548387,0,4098.38709677,0,4076.77419355,0,4082.58064516,0,3785.48387097,0,4104.83870968,0,4104.83870968,0,4087.41935484,0,4333.87096774,0,4116.4516129,0,4843.5483871,0,4081.61290323,0,0,0,?
2017-11-11 16:18:39.958531,4071.29032258,0,4104.19354839,0,4164.19354839,0,4102.90322581,0,4084.51612903,0,4083.5483871,0,3786.4516129,0,4102.25806452,0,4108.06451613,0,4088.38709677,0,4342.25806452,0,4115.48387097,0,4847.41935484,0,4082.25806452,0,0,0,?
2017-11-11 16:18:39.958612,4076.12903226,0,4097.74193548,0,4167.41935484,0,4100.0,0,4092.58064516,0,4085.16129032,0,3779.35483871,0,4100.0,0,4113.87096774,0,4094.51612903,0,4353.87096774,0,4121.29032258,0,4855.16129032,0,4088.38709677,0,0,0,?
2017-11-11 16:18:39.958646,4074.51612903,0,4080.32258065,0,4169.67741935,0,4093.87096774,0,4093.22580645,0,4092.25806452,0,3782.25806452,0,4101.61290323,0,4068.06451613,0,4097.09677419,0,4344.19354839,0,4125.80645161,0,4853.87096774,0,4089.67741935,0,0,0,?
2017-11-11 16:18:39.958704,4072.58064516,0,4067.41935484,0,4172.90322581,0,4088.70967742,0,4089.03225806,0,4098.38709677,0,3789.03225806,0,4104.83870968,0,4069.35483871,0,4094.19354839,0,4369.67741935,0,4126.77419355,0,4847.41935484,0,4088.06451613,0,0,0,?
2017-11-11 16:18:39.958773,4086.12903226,0,4099.67741935,0,4194.51612903,0,4090.64516129,0,4076.4516129,0,4095.48387097,0,3759.03225806,0,4102.25806452,0,4065.48387097,0,4086.77419355,0,4344.51612903,0,4129.35483871,0,4812.90322581,0,4076.4516129,0,0,0,?
2017-11-11 16:18:39.958787,4086.12903226,0,4099.67741935,0,4194.51612903,0,4090.64516129,0,4076.4516129,0,4095.48387097,0,3759.03225806,0,4102.25806452,0,4065.48387097,0,4086.77419355,0,4344.51612903,0,4129.35483871,0,4812.90322581,0,4076.4516129,0,0,0,?
2017-11-11 16:18:39.958826,4086.12903226,0,4099.67741935,0,4194.51612903,0,4090.64516129,0,4076.4516129,0,4095.48387097,0,3759.03225806,0,4102.25806452,0,4065.48387097,0,4086.77419355,0,4344.51612903,0,4129.35483871,0,4812.90322581,0,4076.4516129,0,0,0,?
2017-11-11 16:18:39.958868,4086.12903226,0,4099.67741935,0,4194.51612903,0,4090.64516129,0,4076.4516129,0,4095.48387097,0,3759.03225806,0,4102.25806452,0,4065.48387097,0,4086.77419355,0,4344.51612903,0,4129.35483871,0,4812.90322581,0,4076.4516129,0,0,0,?
2017-11-11 16:18:39.958951,4087.09677419,0,4100.64516129,0,4191.93548387,0,4090.96774194,0,4080.32258065,0,4098.38709677,0,3765.16129032,0,4102.58064516,0,4065.16129032,0,4094.19354839,0,4339.35483871,0,4133.87096774,0,4813.5483871,0,4082.58064516,0,0,0,?
2017-11-11 16:18:39.958979,4098.70967742,0,4104.19354839,0,4198.38709677,0,4086.77419355,0,4087.74193548,0,4090.96774194,0,3760.32258065,0,4100.32258065,0,4064.51612903,0,4110.0,0,4338.70967742,0,4143.22580645,0,4823.22580645,0,4101.29032258,0,0,0,?
2017-11-11 16:18:39.959003,4102.90322581,0,4100.64516129,0,4199.35483871,0,4082.90322581,0,4090.64516129,0,4081.61290323,0,3765.48387097,0,4097.41935484,0,4113.5483871,0,4068.06451613,0,4332.25806452,0,4148.06451613,0,4827.41935484,0,4113.5483871,0,0,0,?
2017-11-11 16:18:39.959082,4095.80645161,0,4091.93548387,0,4191.93548387,0,4083.87096774,0,4088.38709677,0,4078.38709677,0,3789.35483871,0,4096.12903226,0,4112.90322581,0,4111.29032258,0,4367.41935484,0,4143.5483871,0,4817.74193548,0,4109.03225806,0,0,0,?
2017-11-11 16:18:39.959132,4092.25806452,0,4091.29032258,0,4189.35483871,0,4087.74193548,0,4086.77419355,0,4079.03225806,0,3757.41935484,0,4094.51612903,0,4113.22580645,0,4099.03225806,0,4361.93548387,0,4137.09677419,0,4806.4516129,0,4096.77419355,0,0,0,?
2017-11-11 16:18:39.959168,4098.70967742,0,4100.64516129,0,4195.80645161,0,4090.32258065,0,4086.77419355,0,4079.03225806,0,3753.5483871,0,4093.22580645,0,4064.83870968,0,4093.87096774,0,4325.48387097,0,4135.48387097,0,4854.83870968,0,4086.4516129,0,0,0,?
2017-11-11 16:18:39.959247,4099.67741935,0,4105.16129032,0,4194.51612903,0,4091.93548387,0,4085.80645161,0,4081.93548387,0,3745.16129032,0,4095.48387097,0,4067.41935484,0,4093.87096774,0,4337.74193548,0,4136.4516129,0,4855.80645161,0,4078.06451613,0,0,0,?
2017-11-11 16:18:39.959260,4086.77419355,0,4097.09677419,0,4176.77419355,0,4095.16129032,0,4085.16129032,0,4088.38709677,0,3753.5483871,0,4101.93548387,0,4069.03225806,0,4092.25806452,0,4329.03225806,0,4135.16129032,0,4850.96774194,0,4071.29032258,0,0,0,?
2017-11-11 16:18:39.959307,4073.87096774,0,4086.4516129,0,4159.03225806,0,4097.74193548,0,4090.64516129,0,4091.61290323,0,3767.74193548,0,4107.41935484,0,4068.70967742,0,4090.96774194,0,4363.22580645,0,4132.25806452,0,4848.38709677,0,4073.87096774,0,0,0,?
2017-11-11 16:18:39.959498,4072.58064516,0,4082.90322581,0,4157.09677419,0,4096.77419355,0,4100.64516129,0,4086.12903226,0,3770.0,0,4107.41935484,0,4068.06451613,0,4093.22580645,0,4360.96774194,0,4131.29032258,0,4806.4516129,0,4085.80645161,0,0,0,?
2017-11-11 16:18:39.959608,4072.58064516,0,4079.35483871,0,4164.19354839,0,4093.22580645,0,4104.83870968,0,4079.35483871,0,3767.41935484,0,4103.87096774,0,4068.38709677,0,4092.25806452,0,4363.87096774,0,4131.61290323,0,4815.80645161,0,4092.58064516,0,0,0,?
2017-11-11 16:18:39.959622,4063.22580645,0,4071.29032258,0,4166.4516129,0,4091.93548387,0,4097.41935484,0,4080.64516129,0,3775.80645161,0,4101.61290323,0,4069.03225806,0,4081.61290323,0,4350.32258065,0,4129.67741935,0,4812.25806452,0,4083.5483871,0,0,0,?
2017-11-11 16:18:39.959664,4056.12903226,0,4068.06451613,0,4167.41935484,0,4092.90322581,0,4085.80645161,0,4088.70967742,0,3782.58064516,0,4100.0,0,4067.74193548,0,4069.03225806,0,4328.70967742,0,4126.77419355,0,4851.29032258,0,4069.03225806,0,0,0,?
2017-11-11 16:18:39.959713,4065.16129032,0,4079.03225806,0,4175.16129032,0,4092.25806452,0,4079.03225806,0,4094.19354839,0,3767.41935484,0,4097.41935484,0,4064.83870968,0,4068.06451613,0,4327.41935484,0,4127.41935484,0,4847.09677419,0,4065.48387097,0,0,0,?
2017-11-11 16:18:39.959790,4080.32258065,0,4095.16129032,0,4181.61290323,0,4089.35483871,0,4078.06451613,0,4094.83870968,0,3742.25806452,0,4094.83870968,0,4112.25806452,0,4077.74193548,0,4350.64516129,0,4128.38709677,0,4848.38709677,0,4072.25806452,0,0,0,?
2017-11-11 16:18:39.959804,4083.5483871,0,4101.29032258,0,4174.19354839,0,4088.38709677,0,4080.32258065,0,4093.87096774,0,3788.06451613,0,4096.77419355,0,4110.96774194,0,4086.77419355,0,4324.51612903,0,4125.16129032,0,4842.25806452,0,4079.03225806,0,0,0,?
2017-11-11 16:18:39.959839,4079.67741935,0,4098.70967742,0,4161.93548387,0,4090.64516129,0,4086.77419355,0,4090.64516129,0,3754.51612903,0,4101.61290323,0,4110.64516129,0,4091.61290323,0,4336.77419355,0,4120.64516129,0,4830.32258065,0,4084.19354839,0,0,0,?
2017-11-11 16:18:39.959854,4086.77419355,0,4099.03225806,0,4166.12903226,0,4092.25806452,0,4097.09677419,0,4081.61290323,0,3761.29032258,0,4103.22580645,0,4110.0,0,4099.35483871,0,4348.06451613,0,4123.5483871,0,4828.70967742,0,4094.51612903,0,0,0,?
2017-11-11 16:18:39.959882,4102.90322581,0,4102.25806452,0,4186.77419355,0,4091.29032258,0,4103.22580645,0,4070.32258065,0,3745.16129032,0,4099.67741935,0,4108.70967742,0,4110.96774194,0,4360.96774194,0,4132.25806452,0,4841.61290323,0,4107.74193548,0,0,0,?
2017-11-11 16:18:39.959971,4110.0,0,4099.03225806,0,4205.16129032,0,4090.0,0,4100.0,0,4065.80645161,0,3774.83870968,0,4095.16129032,0,4107.74193548,0,4066.12903226,0,4360.0,0,4138.38709677,0,4853.5483871,0,4112.25806452,0,0,0,?
2017-11-11 16:18:39.960057,4105.16129032,0,4091.61290323,0,4161.93548387,0,4091.29032258,0,4093.5483871,0,4068.70967742,0,3763.5483871,0,4093.87096774,0,4107.74193548,0,4111.93548387,0,4344.19354839,0,4137.74193548,0,4855.16129032,0,4107.09677419,0,0,0,?
2017-11-11 16:18:39.960115,4103.87096774,0,4092.90322581,0,4165.80645161,0,4092.90322581,0,4093.5483871,0,4070.64516129,0,3753.5483871,0,4094.51612903,0,4109.03225806,0,4106.77419355,0,4338.06451613,0,4137.41935484,0,4855.48387097,0,4102.90322581,0,0,0,?
2017-11-11 16:18:39.960240,4110.96774194,0,4102.90322581,0,4168.38709677,0,4091.61290323,0,4098.70967742,0,4068.06451613,0,3744.19354839,0,4096.4516129,0,4111.93548387,0,4108.06451613,0,4352.25806452,0,4141.93548387,0,4811.29032258,0,4103.5483871,0,0,0,?
2017-11-11 16:18:39.960289,4111.29032258,0,4107.09677419,0,4209.35483871,0,4089.67741935,0,4100.32258065,0,4068.06451613,0,3754.51612903,0,4099.67741935,0,4064.51612903,0,4110.0,0,4363.22580645,0,4145.48387097,0,4814.51612903,0,4100.96774194,0,0,0,?
2017-11-11 16:18:39.960412,4100.32258065,0,4101.29032258,0,4190.32258065,0,4089.67741935,0,4096.12903226,0,4076.12903226,0,3785.48387097,0,4102.58064516,0,4067.09677419,0,4106.77419355,0,4350.32258065,0,4141.93548387,0,4807.09677419,0,4092.90322581,0,0,0,?
2017-11-11 16:18:39.960453,4093.87096774,0,4097.09677419,0,4180.32258065,0,4090.64516129,0,4091.93548387,0,4086.12903226,0,3754.19354839,0,4102.25806452,0,4068.06451613,0,4103.5483871,0,4327.41935484,0,4134.83870968,0,4851.29032258,0,4090.96774194,0,0,0,?
2017-11-11 16:18:39.960502,4100.0,0,4101.93548387,0,4187.09677419,0,4090.32258065,0,4090.0,0,4090.64516129,0,3790.0,0,4098.06451613,0,4066.77419355,0,4104.51612903,0,4368.06451613,0,4130.0,0,4807.74193548,0,4099.35483871,0,0,0,?
2017-11-11 16:18:39.960545,4103.5483871,0,4104.83870968,0,4194.51612903,0,4089.67741935,0,4085.80645161,0,4091.29032258,0,3766.4516129,0,4094.19354839,0,4064.51612903,0,4102.90322581,0,4367.09677419,0,4126.77419355,0,4818.06451613,0,4104.51612903,0,0,0,?
2017-11-11 16:18:39.960622,4091.93548387,0,4098.06451613,0,4187.09677419,0,4091.93548387,0,4079.35483871,0,4093.22580645,0,3768.38709677,0,4095.16129032,0,4113.5483871,0,4093.22580645,0,4358.38709677,0,4122.25806452,0,4815.48387097,0,4094.51612903,0,0,0,?
2017-11-11 16:18:39.960717,4079.03225806,0,4090.96774194,0,4173.87096774,0,4095.48387097,0,4077.74193548,0,4093.87096774,0,3790.64516129,0,4098.70967742,0,4114.51612903,0,4082.58064516,0,4347.09677419,0,4120.32258065,0,4853.87096774,0,4078.38709677,0,0,0,?
2017-11-11 16:18:39.960818,4080.0,0,4092.58064516,0,4170.0,0,4095.80645161,0,4083.5483871,0,4090.32258065,0,3755.48387097,0,4099.67741935,0,4067.09677419,0,4082.90322581,0,4350.96774194,0,4125.80645161,0,4848.38709677,0,4071.93548387,0,0,0,?
2017-11-11 16:18:39.960835,4086.4516129,0,4094.19354839,0,4169.35483871,0,4093.5483871,0,4089.67741935,0,4087.74193548,0,3759.03225806,0,4098.06451613,0,4069.35483871,0,4090.96774194,0,4362.90322581,0,4133.5483871,0,4850.0,0,4074.83870968,0,0,0,?
2017-11-11 16:18:39.960958,4068.70967742,0,4071.61290323,0,4151.93548387,0,4098.06451613,0,4089.35483871,0,4098.38709677,0,3780.0,0,4095.48387097,0,4066.4516129,0,4087.09677419,0,4347.74193548,0,4130.0,0,4848.38709677,0,4076.4516129,0,0,0,?
2017-11-11 16:18:39.960972,4068.70967742,0,4071.61290323,0,4151.93548387,0,4098.06451613,0,4089.35483871,0,4098.38709677,0,3780.0,0,4095.48387097,0,4066.4516129,0,4087.09677419,0,4347.74193548,0,4130.0,0,4848.38709677,0,4076.4516129,0,0,0,?
2017-11-11 16:18:39.961005,4067.09677419,0,4069.35483871,0,4158.06451613,0,4100.64516129,0,4091.93548387,0,4095.48387097,0,3776.4516129,0,4092.90322581,0,4064.51612903,0,4081.29032258,0,4346.77419355,0,4127.09677419,0,4807.09677419,0,4081.29032258,0,0,0,?
2017-11-11 16:18:39.961020,4074.83870968,0,4076.4516129,0,4173.5483871,0,4098.38709677,0,4094.19354839,0,4084.51612903,0,3758.38709677,0,4091.29032258,0,4113.87096774,0,4079.67741935,0,4364.19354839,0,4128.06451613,0,4821.61290323,0,4087.74193548,0,0,0,?
2017-11-11 16:18:39.961118,4077.09677419,0,4080.64516129,0,4180.0,0,4093.22580645,0,4090.96774194,0,4076.4516129,0,3749.03225806,0,4094.83870968,0,4114.19354839,0,4079.03225806,0,4326.77419355,0,4128.06451613,0,4823.5483871,0,4086.77419355,0,0,0,?
2017-11-11 16:18:39.961139,4074.51612903,0,4081.61290323,0,4174.83870968,0,4089.03225806,0,4085.16129032,0,4075.80645161,0,3751.61290323,0,4101.61290323,0,4065.48387097,0,4078.70967742,0,4324.51612903,0,4125.80645161,0,4810.0,0,4082.90322581,0,0,0,?
2017-11-11 16:18:39.961193,4080.64516129,0,4087.74193548,0,4173.5483871,0,4084.51612903,0,4084.19354839,0,4075.80645161,0,3743.22580645,0,4106.4516129,0,4068.38709677,0,4086.12903226,0,4322.90322581,0,4126.12903226,0,4850.0,0,4089.03225806,0,0,0,?
2017-11-11 16:18:39.961237,4094.83870968,0,4096.4516129,0,4180.32258065,0,4080.0,0,4088.06451613,0,4072.25806452,0,3770.0,0,4105.48387097,0,4071.29032258,0,4099.67741935,0,4331.29032258,0,4130.64516129,0,4853.22580645,0,4103.5483871,0,0,0,?
2017-11-11 16:18:39.961313,4099.35483871,0,4095.80645161,0,4182.58064516,0,4079.03225806,0,4089.35483871,0,4070.0,0,3757.41935484,0,4101.93548387,0,4071.93548387,0,4107.41935484,0,4336.4516129,0,4132.58064516,0,4808.06451613,0,4109.67741935,0,0,0,?
2017-11-11 16:18:39.961326,4090.32258065,0,4086.77419355,0,4176.4516129,0,4083.5483871,0,4088.70967742,0,4073.5483871,0,3771.93548387,0,4098.70967742,0,4070.32258065,0,4102.90322581,0,4328.38709677,0,4128.70967742,0,4854.83870968,0,4101.61290323,0,0,0,?
2017-11-11 16:18:39.961474,4086.77419355,0,4086.4516129,0,4175.80645161,0,4090.32258065,0,4091.61290323,0,4076.4516129,0,3790.32258065,0,4095.48387097,0,4069.03225806,0,4097.09677419,0,4324.83870968,0,4125.16129032,0,4849.35483871,0,4092.25806452,0,0,0,?
2017-11-11 16:18:39.961510,4097.09677419,0,4099.67741935,0,4187.09677419,0,4093.5483871,0,4098.70967742,0,4074.51612903,0,3788.38709677,0,4092.58064516,0,4069.03225806,0,4099.03225806,0,4338.70967742,0,4126.77419355,0,4850.96774194,0,4092.25806452,0,0,0,?
2017-11-11 16:18:39.961644,4104.51612903,0,4110.0,0,4196.12903226,0,4093.5483871,0,4101.61290323,0,4073.22580645,0,3775.16129032,0,4092.58064516,0,4070.32258065,0,4103.22580645,0,4351.93548387,0,4130.0,0,4852.58064516,0,4096.12903226,0,0,0,?
2017-11-11 16:18:39.961659,4096.4516129,0,4104.51612903,0,4193.22580645,0,4093.87096774,0,4097.09677419,0,4077.09677419,0,3769.03225806,0,4096.12903226,0,4070.96774194,0,4100.64516129,0,4343.22580645,0,4130.0,0,4845.80645161,0,4095.48387097,0,0,0,?
2017-11-11 16:18:39.961722,4085.16129032,0,4091.61290323,0,4190.32258065,0,4094.51612903,0,4090.0,0,4080.96774194,0,3764.51612903,0,4099.03225806,0,4070.64516129,0,4094.19354839,0,4325.48387097,0,4128.38709677,0,4840.32258065,0,4093.5483871,0,0,0,?
2017-11-11 16:18:39.961776,4085.16129032,0,4083.5483871,0,4197.74193548,0,4093.22580645,0,4085.16129032,0,4079.03225806,0,3751.61290323,0,4098.06451613,0,4069.67741935,0,4091.93548387,0,4323.87096774,0,4129.35483871,0,4847.74193548,0,4094.83870968,0,0,0,?
2017-11-11 16:18:39.961851,4089.03225806,0,4080.64516129,0,4204.19354839,0,4091.29032258,0,4080.32258065,0,4076.77419355,0,3746.12903226,0,4097.09677419,0,4069.03225806,0,4093.22580645,0,4334.83870968,0,4131.61290323,0,4809.35483871,0,4093.22580645,0,0,0,?
2017-11-11 16:18:39.961867,4082.90322581,0,4078.38709677,0,4195.16129032,0,4093.22580645,0,4074.83870968,0,4082.90322581,0,3766.4516129,0,4100.0,0,4069.35483871,0,4091.61290323,0,4333.87096774,0,4130.64516129,0,4809.35483871,0,4084.19354839,0,0,0,?
2017-11-11 16:18:39.961895,4074.51612903,0,4082.90322581,0,4178.70967742,0,4098.38709677,0,4073.87096774,0,4094.51612903,0,3744.19354839,0,4104.51612903,0,4070.64516129,0,4087.41935484,0,4368.70967742,0,4129.35483871,0,4850.32258065,0,4077.74193548,0,0,0,?
2017-11-11 16:18:39.961928,4076.77419355,0,4096.77419355,0,4172.25806452,0,4100.96774194,0,4079.35483871,0,4101.93548387,0,3747.09677419,0,4105.16129032,0,4071.61290323,0,4088.70967742,0,4359.67741935,0,4132.25806452,0,4848.06451613,0,4083.5483871,0,0,0,?
2017-11-11 16:18:39.961990,4083.87096774,0,4106.12903226,0,4173.87096774,0,4099.03225806,0,4083.5483871,0,4103.5483871,0,3777.09677419,0,4101.61290323,0,4070.32258065,0,4094.19354839,0,4362.90322581,0,4137.41935484,0,4854.83870968,0,4094.19354839,0,0,0,?
2017-11-11 16:18:39.962011,4080.96774194,0,4097.41935484,0,4170.64516129,0,4096.12903226,0,4080.0,0,4104.19354839,0,3765.48387097,0,4098.70967742,0,4067.74193548,0,4096.4516129,0,4361.93548387,0,4139.03225806,0,4807.74193548,0,4095.16129032,0,0,0,?
2017-11-11 16:18:39.962080,4075.16129032,0,4080.32258065,0,4165.16129032,0,4095.80645161,0,4073.87096774,0,4103.5483871,0,3773.22580645,0,4098.38709677,0,4114.51612903,0,4096.12903226,0,4354.19354839,0,4137.09677419,0,4854.19354839,0,4087.09677419,0,0,0,?
2017-11-11 16:18:39.962106,4083.87096774,0,4075.48387097,0,4173.5483871,0,4096.12903226,0,4074.51612903,0,4095.48387097,0,3778.70967742,0,4098.06451613,0,4112.25806452,0,4102.25806452,0,4357.09677419,0,4137.74193548,0,4856.12903226,0,4084.19354839,0,0,0,?
2017-11-11 16:18:39.962195,4104.19354839,0,4085.48387097,0,4191.93548387,0,4094.19354839,0,4081.93548387,0,4081.29032258,0,3772.58064516,0,4096.4516129,0,4111.61290323,0,4113.5483871,0,4324.19354839,0,4142.25806452,0,4816.4516129,0,4090.0,0,0,0,?
2017-11-11 16:18:39.962225,4111.93548387,0,4095.48387097,0,4199.67741935,0,4092.25806452,0,4088.70967742,0,4070.64516129,0,3772.25806452,0,4095.48387097,0,4113.22580645,0,4066.4516129,0,4333.87096774,0,4144.51612903,0,4822.90322581,0,4094.83870968,0,0,0,?
2017-11-11 16:18:39.962255,4085.48387097,0,4100.96774194,0,4178.06451613,0,4092.58064516,0,4097.09677419,0,4070.96774194,0,3755.80645161,0,4093.22580645,0,4068.06451613,0,4096.12903226,0,4363.22580645,0,4140.0,0,4815.48387097,0,4095.16129032,0,0,0,?
2017-11-11 16:18:39.962272,4085.48387097,0,4100.96774194,0,4178.06451613,0,4092.58064516,0,4097.09677419,0,4070.96774194,0,3755.80645161,0,4093.22580645,0,4068.06451613,0,4096.12903226,0,4363.22580645,0,4140.0,0,4815.48387097,0,4095.16129032,0,0,0,?
2017-11-11 16:18:39.962342,4080.0,0,4103.5483871,0,4177.41935484,0,4090.64516129,0,4100.64516129,0,4070.96774194,0,3762.90322581,0,4090.32258065,0,4068.38709677,0,4094.51612903,0,4367.41935484,0,4141.93548387,0,4819.35483871,0,4100.64516129,0,0,0,?
2017-11-11 16:18:39.962389,4074.51612903,0,4097.41935484,0,4179.03225806,0,4089.03225806,0,4099.03225806,0,4072.25806452,0,3770.96774194,0,4091.93548387,0,4066.77419355,0,4096.12903226,0,4372.25806452,0,4141.93548387,0,4820.0,0,4100.0,0,0,0,?
2017-11-11 16:18:39.962424,4064.19354839,0,4082.58064516,0,4174.51612903,0,4090.32258065,0,4093.5483871,0,4077.74193548,0,3783.5483871,0,4098.70967742,0,4064.83870968,0,4090.96774194,0,4361.29032258,0,4135.48387097,0,4808.70967742,0,4090.64516129,0,0,0,?
2017-11-11 16:18:39.962451,4064.51612903,0,4075.80645161,0,4172.58064516,0,4092.25806452,0,4090.64516129,0,4079.67741935,0,3777.74193548,0,4105.48387097,0,4113.87096774,0,4082.90322581,0,4348.38709677,0,4127.74193548,0,4848.38709677,0,4083.87096774,0,0,0,?
2017-11-11 16:18:39.962543,4082.25806452,0,4084.83870968,0,4180.64516129,0,4090.32258065,0,4092.25806452,0,4073.22580645,0,3743.5483871,0,4106.12903226,0,4114.19354839,0,4079.35483871,0,4355.16129032,0,4125.48387097,0,4851.93548387,0,4087.09677419,0,0,0,?
2017-11-11 16:18:39.962593,4097.74193548,0,4096.77419355,0,4187.09677419,0,4086.4516129,0,4092.25806452,0,4065.48387097,0,3761.93548387,0,4102.58064516,0,4064.83870968,0,4078.70967742,0,4372.58064516,0,4126.12903226,0,4810.0,0,4090.96774194,0,0,0,?
2017-11-11 16:18:39.962725,4092.90322581,0,4098.38709677,0,4180.64516129,0,4085.80645161,0,4089.03225806,0,4066.77419355,0,3768.38709677,0,4098.38709677,0,4065.80645161,0,4074.51612903,0,4326.4516129,0,4123.87096774,0,4856.4516129,0,4085.16129032,0,0,0,?
2017-11-11 16:18:39.962778,4072.58064516,0,4096.12903226,0,4170.96774194,0,4092.90322581,0,4092.25806452,0,4084.83870968,0,3770.64516129,0,4091.93548387,0,4065.80645161,0,4075.48387097,0,4370.0,0,4120.64516129,0,4836.12903226,0,4078.70967742,0,0,0,?
2017-11-11 16:18:39.962836,4072.58064516,0,4096.12903226,0,4170.96774194,0,4092.90322581,0,4092.25806452,0,4084.83870968,0,3770.64516129,0,4091.93548387,0,4065.80645161,0,4075.48387097,0,4370.0,0,4120.64516129,0,4836.12903226,0,4078.70967742,0,0,0,?
2017-11-11 16:18:39.962852,4075.16129032,0,4096.4516129,0,4176.4516129,0,4092.58064516,0,4094.19354839,0,4088.70967742,0,3763.87096774,0,4092.25806452,0,4065.48387097,0,4084.51612903,0,4330.64516129,0,4122.90322581,0,4839.03225806,0,4087.09677419,0,0,0,?
2017-11-11 16:18:39.962969,4073.87096774,0,4088.38709677,0,4173.5483871,0,4091.61290323,0,4088.70967742,0,4090.64516129,0,3747.74193548,0,4097.74193548,0,4064.83870968,0,4085.80645161,0,4332.58064516,0,4120.32258065,0,4841.93548387,0,4089.35483871,0,0,0,?
2017-11-11 16:18:39.962984,4072.90322581,0,4079.03225806,0,4167.41935484,0,4092.90322581,0,4082.25806452,0,4089.03225806,0,3782.25806452,0,4104.19354839,0,4114.19354839,0,4080.32258065,0,4325.16129032,0,4116.12903226,0,4844.19354839,0,4086.12903226,0,0,0,?
2017-11-11 16:18:39.963022,4083.87096774,0,4081.93548387,0,4174.83870968,0,4094.19354839,0,4081.93548387,0,4080.96774194,0,3760.64516129,0,4106.4516129,0,4113.5483871,0,4080.32258065,0,4331.29032258,0,4119.35483871,0,4855.80645161,0,4086.77419355,0,0,0,?
2017-11-11 16:18:39.963119,4100.96774194,0,4093.5483871,0,4194.19354839,0,4092.58064516,0,4087.09677419,0,4071.93548387,0,3742.25806452,0,4103.22580645,0,4112.90322581,0,4090.32258065,0,4353.87096774,0,4130.64516129,0,4822.58064516,0,4092.58064516,0,0,0,?
2017-11-11 16:18:39.963161,4104.83870968,0,4099.03225806,0,4208.38709677,0,4088.38709677,0,4089.67741935,0,4072.58064516,0,3748.06451613,0,4100.64516129,0,4112.90322581,0,4100.64516129,0,4367.74193548,0,4140.32258065,0,4828.38709677,0,4095.80645161,0,0,0,?
2017-11-11 16:18:39.963174,4095.80645161,0,4096.77419355,0,4211.29032258,0,4084.19354839,0,4089.03225806,0,4082.58064516,0,3772.58064516,0,4100.0,0,4113.22580645,0,4104.51612903,0,4358.38709677,0,4140.96774194,0,4818.38709677,0,4096.77419355,0,0,0,?
2017-11-11 16:18:39.963276,4092.58064516,0,4098.38709677,0,4161.61290323,0,4079.03225806,0,4088.38709677,0,4088.38709677,0,3782.90322581,0,4099.35483871,0,4113.5483871,0,4107.74193548,0,4344.51612903,0,4137.09677419,0,4810.96774194,0,4104.19354839,0,0,0,?
2017-11-11 16:18:39.963291,4100.64516129,0,4106.12903226,0,4161.61290323,0,4075.16129032,0,4087.41935484,0,4083.22580645,0,3769.03225806,0,4097.09677419,0,4114.19354839,0,4114.51612903,0,4341.93548387,0,4134.51612903,0,4816.4516129,0,4113.87096774,0,0,0,?
2017-11-11 16:18:39.963377,4104.83870968,0,4101.61290323,0,4200.64516129,0,4090.0,0,4077.74193548,0,4075.80645161,0,3776.12903226,0,4098.38709677,0,4064.51612903,0,4067.74193548,0,4340.32258065,0,4131.93548387,0,4822.25806452,0,4110.64516129,0,0,0,?
2017-11-11 16:18:39.963414,4098.38709677,0,4101.61290323,0,4180.0,0,4090.0,0,4077.74193548,0,4075.80645161,0,3776.12903226,0,4098.38709677,0,4064.51612903,0,4113.5483871,0,4326.4516129,0,4127.74193548,0,4816.4516129,0,4092.25806452,0,0,0,?
2017-11-11 16:18:39.963458,4094.83870968,0,4095.48387097,0,4168.70967742,0,4101.93548387,0,4081.29032258,0,4082.25806452,0,3744.51612903,0,4099.03225806,0,4064.51612903,0,4107.41935484,0,4363.22580645,0,4125.80645161,0,4808.06451613,0,4076.4516129,0,0,0,?
2017-11-11 16:18:39.963477,4100.96774194,0,4095.80645161,0,4175.48387097,0,4104.19354839,0,4092.58064516,0,4088.06451613,0,3791.29032258,0,4096.77419355,0,4065.16129032,0,4107.09677419,0,4362.90322581,0,4129.35483871,0,4810.0,0,4076.12903226,0,0,0,?
2017-11-11 16:18:39.963584,4102.90322581,0,4093.22580645,0,4185.16129032,0,4097.41935484,0,4100.32258065,0,4090.96774194,0,3778.70967742,0,4095.48387097,0,4066.4516129,0,4107.09677419,0,4363.22580645,0,4133.22580645,0,4816.4516129,0,4083.5483871,0,0,0,?
2017-11-11 16:18:39.963615,4090.0,0,4081.61290323,0,4182.58064516,0,4089.67741935,0,4099.35483871,0,4092.90322581,0,3784.83870968,0,4097.74193548,0,4068.06451613,0,4101.61290323,0,4347.41935484,0,4131.61290323,0,4813.5483871,0,4084.83870968,0,0,0,?
2017-11-11 16:18:39.963719,4076.12903226,0,4072.90322581,0,4176.4516129,0,4086.77419355,0,4094.83870968,0,4090.64516129,0,3756.12903226,0,4100.0,0,4069.03225806,0,4095.80645161,0,4329.35483871,0,4128.06451613,0,4856.12903226,0,4080.32258065,0,0,0,?
2017-11-11 16:18:39.963743,4075.48387097,0,4077.09677419,0,4177.74193548,0,4088.06451613,0,4091.61290323,0,4082.90322581,0,3772.58064516,0,4099.35483871,0,4070.0,0,4097.41935484,0,4334.51612903,0,4128.38709677,0,4855.48387097,0,4075.80645161,0,0,0,?
2017-11-11 16:18:39.963834,4079.35483871,0,4084.51612903,0,4179.35483871,0,4090.96774194,0,4088.70967742,0,4076.4516129,0,3782.58064516,0,4097.41935484,0,4070.0,0,4100.0,0,4355.48387097,0,4130.96774194,0,4807.74193548,0,4070.0,0,0,0,?
2017-11-11 16:18:39.963847,4073.5483871,0,4082.25806452,0,4168.70967742,0,4094.83870968,0,4085.16129032,0,4079.67741935,0,3794.51612903,0,4097.74193548,0,4068.70967742,0,4092.58064516,0,4362.90322581,0,4129.35483871,0,4852.90322581,0,4060.96774194,0,0,0,?
2017-11-11 16:18:39.964008,4064.19354839,0,4074.51612903,0,4152.90322581,0,4097.09677419,0,4085.80645161,0,4087.74193548,0,3796.12903226,0,4099.67741935,0,4066.77419355,0,4078.38709677,0,4351.61290323,0,4124.19354839,0,4843.87096774,0,4058.38709677,0,0,0,?
2017-11-11 16:18:39.964095,4067.09677419,0,4073.87096774,0,4149.67741935,0,4093.22580645,0,4093.22580645,0,4089.35483871,0,3766.12903226,0,4099.03225806,0,4114.51612903,0,4071.61290323,0,4346.77419355,0,4121.61290323,0,4845.48387097,0,4072.58064516,0,0,0,?
2017-11-11 16:18:39.964151,4078.06451613,0,4078.38709677,0,4158.06451613,0,4084.83870968,0,4099.03225806,0,4083.22580645,0,3769.35483871,0,4096.4516129,0,4112.90322581,0,4077.09677419,0,4360.32258065,0,4123.5483871,0,4806.77419355,0,4093.87096774,0,0,0,?
2017-11-11 16:18:39.964263,4081.93548387,0,4079.03225806,0,4166.12903226,0,4079.03225806,0,4094.83870968,0,4077.09677419,0,3744.51612903,0,4095.80645161,0,4113.22580645,0,4086.4516129,0,4327.09677419,0,4124.51612903,0,4810.96774194,0,4102.90322581,0,0,0,?
2017-11-11 16:18:39.964334,4081.29032258,0,4079.03225806,0,4173.22580645,0,4080.32258065,0,4085.16129032,0,4075.16129032,0,3755.16129032,0,4097.74193548,0,4064.83870968,0,4094.19354839,0,4338.06451613,0,4123.87096774,0,4854.19354839,0,4097.09677419,0,0,0,?
2017-11-11 16:18:39.964404,4091.29032258,0,4089.67741935,0,4190.0,0,4085.16129032,0,4080.64516129,0,4072.90322581,0,3772.90322581,0,4099.03225806,0,4066.4516129,0,4103.5483871,0,4352.58064516,0,4125.80645161,0,4850.0,0,4091.61290323,0,0,0,?
2017-11-11 16:18:39.964447,4108.70967742,0,4107.09677419,0,4210.64516129,0,4088.38709677,0,4084.51612903,0,4068.06451613,0,3775.48387097,0,4098.70967742,0,4067.09677419,0,4113.5483871,0,4370.64516129,0,4131.93548387,0,4806.4516129,0,4095.48387097,0,0,0,?
2017-11-11 16:18:39.964461,4112.90322581,0,4114.51612903,0,4165.48387097,0,4089.67741935,0,4091.29032258,0,4067.41935484,0,3772.58064516,0,4099.67741935,0,4066.4516129,0,4114.51612903,0,4373.5483871,0,4136.4516129,0,4811.29032258,0,4101.61290323,0,0,0,?
2017-11-11 16:18:39.964490,4099.35483871,0,4106.77419355,0,4200.64516129,0,4090.32258065,0,4098.06451613,0,4072.25806452,0,3776.12903226,0,4102.90322581,0,4065.48387097,0,4104.83870968,0,4356.4516129,0,4136.77419355,0,4856.12903226,0,4103.87096774,0,0,0,?
2017-11-11 16:18:39.964572,4088.70967742,0,4098.06451613,0,4186.12903226,0,4089.35483871,0,4104.51612903,0,4075.80645161,0,3775.16129032,0,4104.83870968,0,4064.83870968,0,4097.74193548,0,4343.87096774,0,4136.77419355,0,4850.32258065,0,4106.4516129,0,0,0,?
2017-11-11 16:18:39.964626,4094.19354839,0,4096.77419355,0,4187.09677419,0,4086.4516129,0,4106.12903226,0,4073.87096774,0,3764.51612903,0,4103.87096774,0,4065.16129032,0,4102.25806452,0,4353.5483871,0,4139.35483871,0,4853.5483871,0,4110.32258065,0,0,0,?
2017-11-11 16:18:39.964663,4102.58064516,0,4094.83870968,0,4193.87096774,0,4084.83870968,0,4098.38709677,0,4072.58064516,0,3761.61290323,0,4101.61290323,0,4065.48387097,0,4109.35483871,0,4364.83870968,0,4139.35483871,0,4807.09677419,0,4106.77419355,0,0,0,?
2017-11-11 16:18:39.964731,4101.29032258,0,4088.70967742,0,4195.16129032,0,4087.74193548,0,4085.16129032,0,4079.03225806,0,3777.09677419,0,4100.32258065,0,4065.80645161,0,4105.48387097,0,4353.22580645,0,4131.93548387,0,4852.25806452,0,4094.51612903,0,0,0,?
2017-11-11 16:18:39.964745,4098.06451613,0,4086.77419355,0,4196.12903226,0,4092.90322581,0,4078.06451613,0,4088.38709677,0,3788.70967742,0,4099.03225806,0,4066.12903226,0,4093.87096774,0,4329.03225806,0,4122.25806452,0,4845.80645161,0,4086.12903226,0,0,0,?
2017-11-11 16:18:39.964783,4100.64516129,0,4095.48387097,0,4201.29032258,0,4094.83870968,0,4080.96774194,0,4094.19354839,0,3778.38709677,0,4097.41935484,0,4067.09677419,0,4086.77419355,0,4370.0,0,4119.35483871,0,4850.32258065,0,4090.64516129,0,0,0,?
2017-11-11 16:18:39.964799,4099.03225806,0,4102.58064516,0,4198.70967742,0,4092.25806452,0,4086.12903226,0,4096.77419355,0,3765.48387097,0,4097.74193548,0,4069.03225806,0,4088.06451613,0,4324.83870968,0,4122.25806452,0,4808.38709677,0,4098.38709677,0,0,0,?
2017-11-11 16:18:39.964826,4084.51612903,0,4098.38709677,0,4180.64516129,0,4090.0,0,4085.16129032,0,4100.64516129,0,3780.64516129,0,4102.58064516,0,4070.32258065,0,4092.25806452,0,4371.29032258,0,4125.80645161,0,4806.4516129,0,4096.4516129,0,0,0,?
2017-11-11 16:18:39.964840,4070.32258065,0,4089.67741935,0,4163.5483871,0,4090.0,0,4081.29032258,0,4102.58064516,0,3762.58064516,0,4106.12903226,0,4069.67741935,0,4099.35483871,0,4355.48387097,0,4128.38709677,0,4846.77419355,0,4087.74193548,0,0,0,?
2017-11-11 16:18:39.964930,4073.22580645,0,4087.09677419,0,4166.4516129,0,4090.96774194,0,4078.70967742,0,4097.41935484,0,3774.83870968,0,4103.22580645,0,4067.09677419,0,4110.0,0,4344.51612903,0,4131.93548387,0,4844.19354839,0,4083.22580645,0,0,0,?
2017-11-11 16:18:39.964981,4085.80645161,0,4086.12903226,0,4181.61290323,0,4092.25806452,0,4077.09677419,0,4089.67741935,0,3758.06451613,0,4096.12903226,0,4064.83870968,0,4066.4516129,0,4342.58064516,0,4133.5483871,0,4850.64516129,0,4080.32258065,0,0,0,?
2017-11-11 16:18:39.965045,4088.70967742,0,4078.70967742,0,4185.48387097,0,4095.80645161,0,4075.48387097,0,4088.06451613,0,3789.35483871,0,4092.58064516,0,4064.83870968,0,4110.64516129,0,4338.38709677,0,4130.0,0,4854.83870968,0,4070.96774194,0,0,0,?
2017-11-11 16:18:39.965058,4082.90322581,0,4071.61290323,0,4175.16129032,0,4100.64516129,0,4077.74193548,0,4090.64516129,0,3785.48387097,0,4095.16129032,0,4067.74193548,0,4096.12903226,0,4335.80645161,0,4124.83870968,0,4854.83870968,0,4060.96774194,0,0,0,?
2017-11-11 16:18:39.965134,4084.19354839,0,4078.06451613,0,4167.74193548,0,4101.29032258,0,4087.09677419,0,4087.74193548,0,3787.74193548,0,4098.70967742,0,4070.64516129,0,4090.32258065,0,4353.87096774,0,4126.77419355,0,4810.32258065,0,4063.87096774,0,0,0,?
2017-11-11 16:18:39.965146,4092.58064516,0,4092.58064516,0,4170.0,0,4095.80645161,0,4097.09677419,0,4076.77419355,0,3791.93548387,0,4098.70967742,0,4070.96774194,0,4098.06451613,0,4338.70967742,0,4135.48387097,0,4821.93548387,0,4080.0,0,0,0,?
2017-11-11 16:18:39.965182,4091.29032258,0,4097.09677419,0,4171.61290323,0,4089.03225806,0,4099.03225806,0,4067.74193548,0,3757.09677419,0,4096.4516129,0,4068.38709677,0,4106.12903226,0,4357.09677419,0,4140.32258065,0,4824.51612903,0,4093.87096774,0,0,0,?
2017-11-11 16:18:39.965222,4079.67741935,0,4090.0,0,4171.29032258,0,4086.12903226,0,4093.5483871,0,4067.41935484,0,3777.09677419,0,4093.22580645,0,4065.16129032,0,4104.19354839,0,4340.64516129,0,4136.12903226,0,4813.22580645,0,4097.74193548,0,0,0,?
2017-11-11 16:18:39.965279,4078.38709677,0,4084.51612903,0,4178.70967742,0,4085.48387097,0,4090.32258065,0,4070.96774194,0,3773.5483871,0,4090.0,0,4113.5483871,0,4096.4516129,0,4362.58064516,0,4128.70967742,0,4854.83870968,0,4099.03225806,0,0,0,?
2017-11-11 16:18:39.965335,4093.22580645,0,4087.09677419,0,4192.58064516,0,4084.51612903,0,4091.93548387,0,4072.90322581,0,3791.29032258,0,4088.70967742,0,4114.19354839,0,4091.93548387,0,4349.67741935,0,4125.80645161,0,4809.03225806,0,4101.61290323,0,0,0,?
2017-11-11 16:18:39.965423,4105.48387097,0,4087.09677419,0,4193.5483871,0,4084.19354839,0,4093.5483871,0,4077.09677419,0,3761.61290323,0,4092.90322581,0,4066.77419355,0,4089.35483871,0,4350.96774194,0,4125.16129032,0,4815.48387097,0,4098.70967742,0,0,0,?
2017-11-11 16:18:39.965498,4100.64516129,0,4081.93548387,0,4175.80645161,0,4087.41935484,0,4092.58064516,0,4085.16129032,0,3762.25806452,0,4101.29032258,0,4070.0,0,4087.09677419,0,4354.51612903,0,4124.19354839,0,4810.96774194,0,4089.35483871,0,0,0,?
2017-11-11 16:18:39.965635,4090.32258065,0,4083.5483871,0,4161.29032258,0,4091.93548387,0,4092.90322581,0,4090.64516129,0,3778.38709677,0,4106.12903226,0,4070.96774194,0,4090.64516129,0,4365.48387097,0,4124.83870968,0,4853.22580645,0,4086.12903226,0,0,0,?
2017-11-11 16:18:39.965653,4086.77419355,0,4096.12903226,0,4168.06451613,0,4093.5483871,0,4095.16129032,0,4087.74193548,0,3784.19354839,0,4103.22580645,0,4069.03225806,0,4100.96774194,0,4339.03225806,0,4128.38709677,0,4853.87096774,0,4094.83870968,0,0,0,?
2017-11-11 16:18:39.965773,4084.83870968,0,4104.83870968,0,4186.77419355,0,4092.25806452,0,4093.5483871,0,4082.90322581,0,3784.19354839,0,4097.41935484,0,4066.12903226,0,4107.41935484,0,4356.4516129,0,4129.03225806,0,4807.41935484,0,4102.58064516,0,0,0,?
2017-11-11 16:18:39.965787,4077.09677419,0,4098.38709677,0,4196.4516129,0,4093.22580645,0,4087.09677419,0,4084.19354839,0,3743.87096774,0,4095.48387097,0,4064.83870968,0,4099.67741935,0,4346.77419355,0,4122.25806452,0,4853.22580645,0,4095.16129032,0,0,0,?
2017-11-11 16:18:39.965835,4074.19354839,0,4085.48387097,0,4195.16129032,0,4097.09677419,0,4082.90322581,0,4088.38709677,0,3755.48387097,0,4097.09677419,0,4065.48387097,0,4085.16129032,0,4325.48387097,0,4113.5483871,0,4846.12903226,0,4079.03225806,0,0,0,?
2017-11-11 16:18:39.965864,4085.16129032,0,4080.32258065,0,4191.29032258,0,4099.67741935,0,4085.16129032,0,4087.09677419,0,3749.35483871,0,4099.35483871,0,4066.4516129,0,4078.70967742,0,4323.87096774,0,4112.25806452,0,4850.0,0,4068.06451613,0,0,0,?
2017-11-11 16:18:39.966047,4097.41935484,0,4081.61290323,0,4185.16129032,0,4099.03225806,0,4088.70967742,0,4082.90322581,0,3783.5483871,0,4100.64516129,0,4065.48387097,0,4083.22580645,0,4341.93548387,0,4117.09677419,0,4809.35483871,0,4065.48387097,0,0,0,?
2017-11-11 16:18:39.966088,4092.58064516,0,4080.0,0,4172.90322581,0,4097.09677419,0,4088.38709677,0,4084.51612903,0,3780.64516129,0,4102.58064516,0,4113.22580645,0,4089.35483871,0,4350.96774194,0,4120.64516129,0,4809.35483871,0,4065.80645161,0,0,0,?
2017-11-11 16:18:39.966178,4079.35483871,0,4079.67741935,0,4167.09677419,0,4094.83870968,0,4087.09677419,0,4091.93548387,0,3788.38709677,0,4104.19354839,0,4110.64516129,0,4093.22580645,0,4339.67741935,0,4120.96774194,0,4850.64516129,0,4071.93548387,0,0,0,?
2017-11-11 16:18:39.966293,4079.03225806,0,4087.74193548,0,4180.96774194,0,4090.32258065,0,4088.70967742,0,4096.12903226,0,3783.5483871,0,4101.93548387,0,4109.67741935,0,4099.35483871,0,4327.74193548,0,4123.5483871,0,4850.0,0,4089.03225806,0,0,0,?
2017-11-11 16:18:39.966346,4092.25806452,0,4097.09677419,0,4204.83870968,0,4083.87096774,0,4089.67741935,0,4093.87096774,0,3765.48387097,0,4098.06451613,0,4110.32258065,0,4106.77419355,0,4328.06451613,0,4129.03225806,0,4810.64516129,0,4108.38709677,0,0,0,?
2017-11-11 16:18:39.966402,4100.96774194,0,4095.48387097,0,4164.51612903,0,4081.61290323,0,4084.51612903,0,4091.29032258,0,3760.0,0,4096.77419355,0,4112.58064516,0,4109.03225806,0,4327.74193548,0,4130.96774194,0,4818.06451613,0,4112.58064516,0,0,0,?
2017-11-11 16:18:39.966443,4099.35483871,0,4087.09677419,0,4205.80645161,0,4085.48387097,0,4078.38709677,0,4090.0,0,3772.90322581,0,4098.70967742,0,4114.19354839,0,4106.4516129,0,4369.35483871,0,4127.74193548,0,4814.51612903,0,4100.64516129,0,0,0,?
2017-11-11 16:18:39.966463,4100.32258065,0,4088.06451613,0,4195.80645161,0,4091.29032258,0,4080.64516129,0,4084.83870968,0,3779.35483871,0,4100.32258065,0,4114.51612903,0,4108.70967742,0,4364.83870968,0,4125.48387097,0,4812.58064516,0,4088.70967742,0,0,0,?
2017-11-11 16:18:39.966492,4105.48387097,0,4099.03225806,0,4192.90322581,0,4093.5483871,0,4089.67741935,0,4074.83870968,0,3768.70967742,0,4099.67741935,0,4113.5483871,0,4067.09677419,0,4370.0,0,4127.74193548,0,4819.35483871,0,4087.41935484,0,0,0,?
2017-11-11 16:18:39.966534,4101.29032258,0,4103.5483871,0,4187.41935484,0,4091.61290323,0,4095.80645161,0,4069.03225806,0,3765.80645161,0,4100.0,0,4113.5483871,0,4069.67741935,0,4368.38709677,0,4129.67741935,0,4823.5483871,0,4089.03225806,0,0,0,?
2017-11-11 16:18:39.966592,4086.12903226,0,4094.51612903,0,4175.16129032,0,4088.70967742,0,4095.48387097,0,4072.90322581,0,3787.74193548,0,4101.29032258,0,4064.51612903,0,4110.0,0,4352.58064516,0,4127.41935484,0,4815.48387097,0,4087.74193548,0,0,0,?
2017-11-11 16:18:39.966627,4080.0,0,4082.90322581,0,4170.64516129,0,4085.48387097,0,4094.51612903,0,4080.0,0,3765.16129032,0,4099.67741935,0,4066.77419355,0,4097.41935484,0,4345.16129032,0,4124.19354839,0,4855.48387097,0,4087.74193548,0,0,0,?
2017-11-11 16:18:39.966676,4090.0,0,4078.06451613,0,4179.67741935,0,4082.58064516,0,4093.87096774,0,4082.90322581,0,3774.51612903,0,4094.51612903,0,4068.06451613,0,4093.87096774,0,4363.22580645,0,4124.19354839,0,4854.19354839,0,4091.29032258,0,0,0,?
2017-11-11 16:18:39.966698,4098.06451613,0,4075.16129032,0,4188.06451613,0,4084.51612903,0,4090.64516129,0,4084.51612903,0,3771.93548387,0,4090.32258065,0,4067.09677419,0,4094.83870968,0,4334.19354839,0,4123.5483871,0,4856.12903226,0,4088.70967742,0,0,0,?
2017-11-11 16:18:39.966965,4089.03225806,0,4070.64516129,0,4180.96774194,0,4094.19354839,0,4084.83870968,0,4088.70967742,0,3771.29032258,0,4090.96774194,0,4064.83870968,0,4089.03225806,0,4329.03225806,0,4119.03225806,0,4851.61290323,0,4075.80645161,0,0,0,?
2017-11-11 16:18:39.967029,4075.48387097,0,4071.61290323,0,4168.06451613,0,4107.09677419,0,4084.19354839,0,4090.64516129,0,3763.87096774,0,4095.16129032,0,4112.25806452,0,4078.38709677,0,4354.83870968,0,4115.48387097,0,4848.06451613,0,4066.12903226,0,0,0,?
2017-11-11 16:18:39.967100,4076.4516129,0,4087.09677419,0,4163.5483871,0,4109.03225806,0,4096.77419355,0,4074.51612903,0,3773.5483871,0,4103.5483871,0,4111.93548387,0,4072.90322581,0,4347.74193548,0,4125.80645161,0,4817.09677419,0,4085.48387097,0,0,0,?
2017-11-11 16:18:39.967134,4076.4516129,0,4087.09677419,0,4163.5483871,0,4109.03225806,0,4096.77419355,0,4074.51612903,0,3773.5483871,0,4103.5483871,0,4111.93548387,0,4072.90322581,0,4347.74193548,0,4125.80645161,0,4817.09677419,0,4085.48387097,0,0,0,?
2017-11-11 16:18:39.967196,4072.90322581,0,4078.70967742,0,4158.38709677,0,4101.29032258,0,4096.77419355,0,4072.58064516,0,3790.0,0,4107.09677419,0,4114.51612903,0,4073.87096774,0,4354.51612903,0,4126.4516129,0,4814.51612903,0,4090.64516129,0,0,0,?
2017-11-11 16:18:39.967207,4068.70967742,0,4066.4516129,0,4155.48387097,0,4094.19354839,0,4094.19354839,0,4079.35483871,0,3774.19354839,0,4107.74193548,0,4067.09677419,0,4076.77419355,0,4358.38709677,0,4120.32258065,0,4850.32258065,0,4086.77419355,0,0,0,?
2017-11-11 16:18:39.967298,4076.4516129,0,4065.80645161,0,4166.4516129,0,4087.74193548,0,4092.58064516,0,4087.41935484,0,3782.25806452,0,4101.93548387,0,4068.70967742,0,4087.09677419,0,4322.90322581,0,4115.80645161,0,4841.61290323,0,4083.5483871,0,0,0,?
2017-11-11 16:18:39.967313,4089.35483871,0,4074.83870968,0,4182.25806452,0,4083.5483871,0,4088.70967742,0,4091.61290323,0,3752.25806452,0,4094.83870968,0,4067.09677419,0,4100.64516129,0,4346.77419355,0,4117.41935484,0,4844.51612903,0,4083.5483871,0,0,0,?
2017-11-11 16:18:39.967413,4089.03225806,0,4082.25806452,0,4184.51612903,0,4085.48387097,0,4080.96774194,0,4093.22580645,0,3764.51612903,0,4094.19354839,0,4113.22580645,0,4105.16129032,0,4358.06451613,0,4121.93548387,0,4848.06451613,0,4081.61290323,0,0,0,?
2017-11-11 16:18:39.967445,4079.67741935,0,4086.77419355,0,4173.87096774,0,4093.5483871,0,4077.09677419,0,4089.67741935,0,3744.19354839,0,4100.0,0,4108.70967742,0,4100.0,0,4353.5483871,0,4127.74193548,0,4849.35483871,0,4081.29032258,0,0,0,?
2017-11-11 16:18:39.967539,4081.29032258,0,4097.09677419,0,4170.96774194,0,4100.32258065,0,4084.83870968,0,4077.41935484,0,3738.70967742,0,4105.16129032,0,4106.4516129,0,4099.03225806,0,4355.16129032,0,4135.80645161,0,4806.77419355,0,4090.64516129,0,0,0,?
2017-11-11 16:18:39.967717,4095.80645161,0,4108.70967742,0,4183.5483871,0,4100.0,0,4100.0,0,4062.25806452,0,3742.90322581,0,4103.87096774,0,4109.03225806,0,4107.74193548,0,4370.0,0,4143.87096774,0,4822.25806452,0,4106.4516129,0,0,0,?
2017-11-11 16:18:39.967761,4105.16129032,0,4108.38709677,0,4198.38709677,0,4094.19354839,0,4109.03225806,0,4057.41935484,0,3761.61290323,0,4099.67741935,0,4114.51612903,0,4065.48387097,0,4374.19354839,0,4144.51612903,0,4829.67741935,0,4113.5483871,0,0,0,?
2017-11-11 16:18:39.967778,4102.58064516,0,4097.09677419,0,4207.09677419,0,4088.06451613,0,4106.4516129,0,4067.74193548,0,3784.19354839,0,4095.80645161,0,4069.03225806,0,4113.22580645,0,4352.90322581,0,4138.06451613,0,4820.32258065,0,4108.06451613,0,0,0,?
2017-11-11 16:18:39.967963,4101.93548387,0,4090.64516129,0,4164.51612903,0,4083.5483871,0,4098.70967742,0,4081.29032258,0,3782.25806452,0,4093.5483871,0,4070.32258065,0,4105.48387097,0,4329.03225806,0,4132.90322581,0,4808.70967742,0,4101.93548387,0,0,0,?
2017-11-11 16:18:39.967981,4108.70967742,0,4095.80645161,0,4170.96774194,0,4080.32258065,0,4090.96774194,0,4086.4516129,0,3753.22580645,0,4092.58064516,0,4069.03225806,0,4099.67741935,0,4327.09677419,0,4135.80645161,0,4807.74193548,0,4101.29032258,0,0,0,?
2017-11-11 16:18:39.968070,4108.06451613,0,4101.29032258,0,4162.25806452,0,4081.61290323,0,4084.19354839,0,4085.48387097,0,3734.83870968,0,4094.83870968,0,4066.77419355,0,4095.48387097,0,4337.74193548,0,4140.96774194,0,4809.67741935,0,4098.38709677,0,0,0,?
2017-11-11 16:18:39.968085,4091.61290323,0,4098.70967742,0,4187.41935484,0,4088.70967742,0,4080.96774194,0,4085.16129032,0,3755.48387097,0,4100.32258065,0,4065.80645161,0,4089.67741935,0,4336.4516129,0,4140.0,0,4854.19354839,0,4089.03225806,0,0,0,?
2017-11-11 16:18:39.968777,4075.80645161,0,4095.16129032,0,4167.74193548,0,4095.80645161,0,4084.51612903,0,4086.12903226,0,3791.61290323,0,4104.51612903,0,4066.12903226,0,4088.06451613,0,4323.5483871,0,4133.5483871,0,4847.41935484,0,4082.90322581,0,0,0,?
2017-11-11 16:18:39.968826,4076.4516129,0,4097.09677419,0,4169.67741935,0,4096.4516129,0,4091.93548387,0,4085.48387097,0,3754.51612903,0,4103.5483871,0,4067.74193548,0,4095.16129032,0,4364.51612903,0,4128.38709677,0,4852.25806452,0,4087.09677419,0,0,0,?
2017-11-11 16:18:39.969062,4084.51612903,0,4095.48387097,0,4179.67741935,0,4091.29032258,0,4093.22580645,0,4086.12903226,0,3744.19354839,0,4100.96774194,0,4068.38709677,0,4102.25806452,0,4356.12903226,0,4124.83870968,0,4812.25806452,0,4091.93548387,0,0,0,?
2017-11-11 16:18:39.969094,4084.51612903,0,4084.19354839,0,4178.70967742,0,4087.09677419,0,4085.80645161,0,4092.58064516,0,3788.06451613,0,4100.32258065,0,4067.09677419,0,4099.35483871,0,4338.70967742,0,4121.93548387,0,4814.51612903,0,4085.80645161,0,0,0,?
2017-11-11 16:18:39.969129,4080.64516129,0,4073.5483871,0,4169.35483871,0,4087.74193548,0,4078.70967742,0,4100.0,0,3743.22580645,0,4100.96774194,0,4064.83870968,0,4090.32258065,0,4324.51612903,0,4122.25806452,0,4809.35483871,0,4073.87096774,0,0,0,?
2017-11-11 16:18:39.969143,4083.5483871,0,4074.51612903,0,4166.77419355,0,4090.32258065,0,4079.35483871,0,4100.96774194,0,3748.70967742,0,4100.32258065,0,4114.51612903,0,4087.09677419,0,4336.4516129,0,4128.06451613,0,4809.03225806,0,4068.38709677,0,0,0,?
2017-11-11 16:18:39.969250,4085.80645161,0,4081.93548387,0,4169.03225806,0,4091.61290323,0,4083.5483871,0,4097.09677419,0,3753.87096774,0,4098.38709677,0,4065.80645161,0,4090.32258065,0,4365.48387097,0,4134.83870968,0,4811.93548387,0,4069.03225806,0,0,0,?
2017-11-11 16:18:39.969303,4075.48387097,0,4082.90322581,0,4165.80645161,0,4091.61290323,0,4083.87096774,0,4096.12903226,0,3769.35483871,0,4099.35483871,0,4067.74193548,0,4090.32258065,0,4328.06451613,0,4134.19354839,0,4807.09677419,0,4069.03225806,0,0,0,?
2017-11-11 16:18:39.969350,4062.90322581,0,4079.35483871,0,4161.61290323,0,4090.32258065,0,4082.90322581,0,4097.41935484,0,3782.90322581,0,4101.93548387,0,4067.41935484,0,4086.77419355,0,4365.16129032,0,4127.74193548,0,4848.06451613,0,4070.64516129,0,0,0,?
2017-11-11 16:18:39.969516,4068.06451613,0,4082.58064516,0,4169.35483871,0,4086.12903226,0,4085.80645161,0,4092.25806452,0,3769.35483871,0,4102.90322581,0,4065.80645161,0,4089.03225806,0,4353.22580645,0,4125.48387097,0,4851.29032258,0,4081.93548387,0,0,0,?
2017-11-11 16:18:39.969631,4088.38709677,0,4090.0,0,4183.87096774,0,4081.61290323,0,4090.64516129,0,4079.03225806,0,3783.22580645,0,4100.96774194,0,4114.51612903,0,4098.38709677,0,4363.22580645,0,4130.0,0,4817.41935484,0,4097.41935484,0,0,0,?
2017-11-11 16:18:39.969676,4100.64516129,0,4090.96774194,0,4186.12903226,0,4082.25806452,0,4091.93548387,0,4068.38709677,0,3758.06451613,0,4099.03225806,0,4113.87096774,0,4105.48387097,0,4333.22580645,0,4134.51612903,0,4826.12903226,0,4102.90322581,0,0,0,?
2017-11-11 16:18:39.969700,4097.74193548,0,4086.4516129,0,4174.19354839,0,4088.06451613,0,4091.29032258,0,4066.4516129,0,3760.96774194,0,4098.70967742,0,4113.5483871,0,4104.83870968,0,4348.06451613,0,4133.87096774,0,4817.09677419,0,4098.06451613,0,0,0,?
2017-11-11 16:18:39.969747,4094.83870968,0,4089.03225806,0,4167.74193548,0,4092.90322581,0,4093.22580645,0,4069.03225806,0,3771.29032258,0,4098.38709677,0,4113.22580645,0,4103.22580645,0,4360.0,0,4130.64516129,0,4853.5483871,0,4097.09677419,0,0,0,?
2017-11-11 16:18:39.969913,4099.35483871,0,4099.35483871,0,4176.77419355,0,4091.29032258,0,4097.09677419,0,4071.93548387,0,3773.22580645,0,4098.06451613,0,4112.90322581,0,4105.80645161,0,4370.64516129,0,4128.70967742,0,4849.67741935,0,4104.19354839,0,0,0,?
2017-11-11 16:18:39.969927,4099.35483871,0,4101.61290323,0,4188.70967742,0,4086.4516129,0,4096.4516129,0,4077.41935484,0,3779.35483871,0,4099.67741935,0,4112.58064516,0,4106.77419355,0,4366.12903226,0,4125.48387097,0,4849.35483871,0,4106.77419355,0,0,0,?
2017-11-11 16:18:39.969954,4089.35483871,0,4090.96774194,0,4191.61290323,0,4085.16129032,0,4091.93548387,0,4084.51612903,0,3747.74193548,0,4103.5483871,0,4112.58064516,0,4101.61290323,0,4343.22580645,0,4120.0,0,4844.83870968,0,4097.74193548,0,0,0,?
2017-11-11 16:18:39.970050,4085.48387097,0,4081.93548387,0,4193.87096774,0,4087.74193548,0,4089.67741935,0,4086.12903226,0,3758.06451613,0,4105.48387097,0,4112.90322581,0,4099.35483871,0,4328.06451613,0,4118.06451613,0,4842.25806452,0,4088.06451613,0,0,0,?
2017-11-11 16:18:39.970083,4096.12903226,0,4084.83870968,0,4200.64516129,0,4090.0,0,4090.64516129,0,4079.03225806,0,3742.58064516,0,4103.22580645,0,4112.58064516,0,4105.80645161,0,4340.96774194,0,4123.5483871,0,4850.0,0,4088.38709677,0,0,0,?
2017-11-11 16:18:39.970113,4105.48387097,0,4091.61290323,0,4201.93548387,0,4090.64516129,0,4089.35483871,0,4072.90322581,0,3770.32258065,0,4101.61290323,0,4111.93548387,0,4113.22580645,0,4362.58064516,0,4131.29032258,0,4806.77419355,0,4092.25806452,0,0,0,?
2017-11-11 16:18:39.970145,4098.06451613,0,4091.61290323,0,4190.0,0,4091.61290323,0,4084.83870968,0,4078.06451613,0,3768.38709677,0,4105.16129032,0,4111.61290323,0,4108.70967742,0,4360.96774194,0,4132.90322581,0,4850.96774194,0,4090.0,0,0,0,?
2017-11-11 16:18:39.970175,4083.5483871,0,4089.03225806,0,4178.70967742,0,4092.25806452,0,4083.22580645,0,4088.70967742,0,3780.0,0,4110.0,0,4112.58064516,0,4095.80645161,0,4339.03225806,0,4130.32258065,0,4840.64516129,0,4086.12903226,0,0,0,?
2017-11-11 16:18:39.970254,4079.35483871,0,4090.0,0,4182.90322581,0,4091.29032258,0,4088.06451613,0,4093.5483871,0,3782.90322581,0,4110.32258065,0,4064.83870968,0,4087.74193548,0,4324.83870968,0,4129.35483871,0,4843.5483871,0,4088.06451613,0,0,0,?
2017-11-11 16:18:39.970321,4081.93548387,0,4088.70967742,0,4192.58064516,0,4090.32258065,0,4091.61290323,0,4091.61290323,0,3780.96774194,0,4105.16129032,0,4067.41935484,0,4087.41935484,0,4324.19354839,0,4130.0,0,4807.09677419,0,4091.29032258,0,0,0,?
2017-11-11 16:18:39.970365,4080.32258065,0,4078.70967742,0,4190.0,0,4093.5483871,0,4088.06451613,0,4091.61290323,0,3791.93548387,0,4099.03225806,0,4068.70967742,0,4087.41935484,0,4370.32258065,0,4126.4516129,0,4813.87096774,0,4087.41935484,0,0,0,?
2017-11-11 16:18:39.970381,4080.32258065,0,4070.32258065,0,4179.35483871,0,4099.03225806,0,4080.0,0,4095.48387097,0,3756.12903226,0,4094.19354839,0,4068.38709677,0,4087.09677419,0,4358.06451613,0,4120.96774194,0,4809.35483871,0,4080.32258065,0,0,0,?
2017-11-11 16:18:39.970498,4092.90322581,0,4077.41935484,0,4179.35483871,0,4100.32258065,0,4074.83870968,0,4097.09677419,0,3746.77419355,0,4090.0,0,4066.12903226,0,4092.58064516,0,4354.19354839,0,4121.29032258,0,4807.41935484,0,4080.96774194,0,0,0,?
2017-11-11 16:18:39.970530,4106.12903226,0,4092.25806452,0,4190.64516129,0,4094.19354839,0,4073.22580645,0,4093.5483871,0,3767.74193548,0,4088.38709677,0,4113.87096774,0,4103.87096774,0,4361.29032258,0,4128.70967742,0,4812.58064516,0,4087.74193548,0,0,0,?
2017-11-11 16:18:39.970610,4100.32258065,0,4097.74193548,0,4197.41935484,0,4087.41935484,0,4074.19354839,0,4090.64516129,0,3754.83870968,0,4092.58064516,0,4113.22580645,0,4110.0,0,4363.22580645,0,4135.48387097,0,4814.51612903,0,4089.03225806,0,0,0,?
2017-11-11 16:18:39.970703,4080.64516129,0,4092.90322581,0,4194.19354839,0,4086.12903226,0,4079.67741935,0,4088.70967742,0,3774.51612903,0,4099.03225806,0,4113.87096774,0,4109.35483871,0,4357.74193548,0,4137.09677419,0,4810.0,0,4085.48387097,0,0,0,?
2017-11-11 16:18:39.970810,4073.22580645,0,4092.25806452,0,4193.22580645,0,4088.70967742,0,4091.61290323,0,4082.25806452,0,3750.96774194,0,4101.61290323,0,4065.16129032,0,4110.0,0,4364.83870968,0,4136.4516129,0,4809.35483871,0,4088.70967742,0,0,0,?
2017-11-11 16:18:39.970839,4086.4516129,0,4098.38709677,0,4198.70967742,0,4090.64516129,0,4101.93548387,0,4073.5483871,0,3761.29032258,0,4097.74193548,0,4066.4516129,0,4114.51612903,0,4338.38709677,0,4135.80645161,0,4816.77419355,0,4099.35483871,0,0,0,?
2017-11-11 16:18:39.970869,4099.03225806,0,4099.35483871,0,4198.70967742,0,4090.32258065,0,4101.29032258,0,4072.58064516,0,3762.90322581,0,4093.22580645,0,4067.41935484,0,4113.5483871,0,4352.58064516,0,4130.96774194,0,4820.0,0,4102.90322581,0,0,0,?
2017-11-11 16:18:39.970924,4096.12903226,0,4091.29032258,0,4188.70967742,0,4090.64516129,0,4091.29032258,0,4082.25806452,0,3765.16129032,0,4091.93548387,0,4067.74193548,0,4101.93548387,0,4338.38709677,0,4122.90322581,0,4812.58064516,0,4092.90322581,0,0,0,?
2017-11-11 16:18:39.970983,4087.41935484,0,4087.41935484,0,4182.58064516,0,4090.96774194,0,4083.5483871,0,4091.29032258,0,3758.70967742,0,4093.22580645,0,4067.74193548,0,4089.35483871,0,4366.4516129,0,4119.35483871,0,4856.12903226,0,4082.58064516,0,0,0,?
2017-11-11 16:18:39.971000,4083.22580645,0,4094.19354839,0,4186.4516129,0,4090.32258065,0,4084.19354839,0,4089.35483871,0,3791.29032258,0,4094.19354839,0,4066.77419355,0,4086.4516129,0,4362.25806452,0,4123.22580645,0,4810.32258065,0,4083.5483871,0,0,0,?
2017-11-11 16:18:39.971046,4077.09677419,0,4100.96774194,0,4185.80645161,0,4090.32258065,0,4088.06451613,0,4081.61290323,0,3784.51612903,0,4096.12903226,0,4065.48387097,0,4088.70967742,0,4370.64516129,0,4127.74193548,0,4815.80645161,0,4090.0,0,0,0,?
2017-11-11 16:18:39.971109,4066.12903226,0,4097.74193548,0,4171.61290323,0,4092.90322581,0,4090.0,0,4078.06451613,0,3754.19354839,0,4100.0,0,4065.16129032,0,4086.77419355,0,4371.29032258,0,4123.5483871,0,4808.38709677,0,4091.93548387,0,0,0,?
2017-11-11 16:18:39.971571,4064.83870968,0,4091.61290323,0,4159.03225806,0,4096.12903226,0,4092.90322581,0,4079.35483871,0,3776.12903226,0,4102.58064516,0,4066.4516129,0,4082.58064516,0,4367.09677419,0,4114.83870968,0,4846.12903226,0,4091.61290323,0,0,0,?
2017-11-11 16:18:39.971604,4081.61290323,0,4089.03225806,0,4163.5483871,0,4095.16129032,0,4096.77419355,0,4080.32258065,0,3770.32258065,0,4102.25806452,0,4068.70967742,0,4083.5483871,0,4322.90322581,0,4111.29032258,0,4842.90322581,0,4093.5483871,0,0,0,?
2017-11-11 16:18:39.971873,4097.74193548,0,4073.5483871,0,4181.93548387,0,4090.0,0,4088.06451613,0,4082.58064516,0,3784.19354839,0,4102.58064516,0,4070.0,0,4083.22580645,0,4326.12903226,0,4119.03225806,0,4848.70967742,0,4079.03225806,0,0,0,?
2017-11-11 16:18:39.971996,4097.74193548,0,4073.5483871,0,4181.93548387,0,4090.0,0,4088.06451613,0,4082.58064516,0,3784.19354839,0,4102.58064516,0,4070.0,0,4083.22580645,0,4326.12903226,0,4119.03225806,0,4848.70967742,0,4079.03225806,0,0,0,?
2017-11-11 16:18:39.972116,4084.51612903,0,4066.77419355,0,4178.06451613,0,4091.61290323,0,4081.29032258,0,4085.16129032,0,3791.93548387,0,4103.5483871,0,4066.77419355,0,4076.77419355,0,4363.87096774,0,4122.58064516,0,4846.12903226,0,4066.77419355,0,0,0,?
2017-11-11 16:18:39.972130,4079.35483871,0,4076.12903226,0,4178.06451613,0,4092.90322581,0,4082.90322581,0,4083.5483871,0,3745.16129032,0,4101.61290323,0,4113.22580645,0,4078.38709677,0,4371.61290323,0,4127.41935484,0,4850.64516129,0,4067.74193548,0,0,0,?
2017-11-11 16:18:39.972169,4082.58064516,0,4090.96774194,0,4182.25806452,0,4092.25806452,0,4087.74193548,0,4082.25806452,0,3786.12903226,0,4098.06451613,0,4110.96774194,0,4088.70967742,0,4349.03225806,0,4131.61290323,0,4809.67741935,0,4079.35483871,0,0,0,?
2017-11-11 16:18:39.972332,4081.29032258,0,4095.48387097,0,4181.61290323,0,4091.61290323,0,4088.70967742,0,4089.35483871,0,3776.77419355,0,4096.4516129,0,4112.25806452,0,4097.41935484,0,4367.09677419,0,4128.70967742,0,4809.67741935,0,4087.41935484,0,0,0,?
2017-11-11 16:18:39.972415,4078.38709677,0,4090.32258065,0,4180.96774194,0,4093.22580645,0,4087.09677419,0,4100.0,0,3769.03225806,0,4097.74193548,0,4065.48387097,0,4100.0,0,4360.0,0,4122.25806452,0,4850.96774194,0,4090.32258065,0,0,0,?
2017-11-11 16:18:39.972453,4088.70967742,0,4090.0,0,4192.90322581,0,4093.5483871,0,4089.03225806,0,4100.0,0,3749.03225806,0,4098.70967742,0,4068.70967742,0,4103.87096774,0,4346.4516129,0,4121.93548387,0,4849.35483871,0,4096.77419355,0,0,0,?
2017-11-11 16:18:39.972552,4107.74193548,0,4097.41935484,0,4161.29032258,0,4091.61290323,0,4092.58064516,0,4085.48387097,0,3722.90322581,0,4100.0,0,4069.03225806,0,4111.29032258,0,4343.22580645,0,4130.96774194,0,4811.29032258,0,4106.12903226,0,0,0,?
2017-11-11 16:18:39.972618,4064.51612903,0,4100.32258065,0,4167.09677419,0,4090.0,0,4091.61290323,0,4070.64516129,0,3719.35483871,0,4104.19354839,0,4066.77419355,0,4064.51612903,0,4340.0,0,4141.29032258,0,4821.29032258,0,4106.12903226,0,0,0,?
2017-11-11 16:18:39.972724,4104.19354839,0,4095.80645161,0,4207.09677419,0,4091.29032258,0,4085.80645161,0,4066.77419355,0,3744.83870968,0,4110.0,0,4113.87096774,0,4110.0,0,4327.09677419,0,4144.51612903,0,4818.38709677,0,4095.48387097,0,0,0,?
2017-11-11 16:18:39.972745,4092.58064516,0,4094.19354839,0,4199.03225806,0,4093.22580645,0,4082.58064516,0,4072.25806452,0,3769.03225806,0,4111.29032258,0,4111.61290323,0,4105.16129032,0,4368.06451613,0,4141.93548387,0,4812.90322581,0,4087.74193548,0,0,0,?
2017-11-11 16:18:39.972794,4090.64516129,0,4099.35483871,0,4200.64516129,0,4093.5483871,0,4084.51612903,0,4078.70967742,0,3770.32258065,0,4106.12903226,0,4111.93548387,0,4105.16129032,0,4372.25806452,0,4138.38709677,0,4816.12903226,0,4089.35483871,0,0,0,?
2017-11-11 16:18:39.972873,4088.38709677,0,4100.32258065,0,4198.70967742,0,4094.19354839,0,4085.80645161,0,4083.22580645,0,3767.09677419,0,4099.03225806,0,4114.19354839,0,4104.19354839,0,4323.87096774,0,4132.90322581,0,4819.35483871,0,4091.29032258,0,0,0,?
2017-11-11 16:18:39.972910,4079.67741935,0,4092.58064516,0,4184.51612903,0,4098.38709677,0,4084.51612903,0,4086.77419355,0,3781.29032258,0,4095.80645161,0,4066.77419355,0,4097.09677419,0,4359.67741935,0,4126.77419355,0,4812.58064516,0,4084.83870968,0,0,0,?
2017-11-11 16:18:39.972931,4076.77419355,0,4087.41935484,0,4171.61290323,0,4102.58064516,0,4085.80645161,0,4085.80645161,0,3750.64516129,0,4096.12903226,0,4067.74193548,0,4089.67741935,0,4345.80645161,0,4125.16129032,0,4854.19354839,0,4077.74193548,0,0,0,?
2017-11-11 16:18:39.973003,4086.12903226,0,4090.64516129,0,4171.61290323,0,4101.93548387,0,4091.61290323,0,4080.0,0,3753.5483871,0,4097.09677419,0,4066.4516129,0,4090.32258065,0,4354.51612903,0,4130.64516129,0,4856.4516129,0,4077.74193548,0,0,0,?
2017-11-11 16:18:39.973111,4091.29032258,0,4091.93548387,0,4175.48387097,0,4097.41935484,0,4096.12903226,0,4077.74193548,0,3747.74193548,0,4098.70967742,0,4114.51612903,0,4093.5483871,0,4322.58064516,0,4135.16129032,0,4812.25806452,0,4078.70967742,0,0,0,?
2017-11-11 16:18:39.973326,4077.74193548,0,4084.19354839,0,4170.0,0,4094.83870968,0,4095.80645161,0,4084.51612903,0,3754.83870968,0,4100.0,0,4112.90322581,0,4090.32258065,0,4372.58064516,0,4131.29032258,0,4809.67741935,0,4072.58064516,0,0,0,?
2017-11-11 16:18:39.973346,4059.03225806,0,4075.80645161,0,4162.90322581,0,4095.80645161,0,4095.16129032,0,4094.51612903,0,3770.32258065,0,4098.70967742,0,4112.25806452,0,4082.25806452,0,4353.5483871,0,4122.25806452,0,4851.93548387,0,4065.80645161,0,0,0,?
2017-11-11 16:18:39.973422,4055.16129032,0,4077.41935484,0,4165.80645161,0,4096.12903226,0,4095.80645161,0,4096.12903226,0,3774.51612903,0,4093.22580645,0,4112.90322581,0,4079.67741935,0,4340.64516129,0,4116.77419355,0,4852.25806452,0,4068.06451613,0,0,0,?
2017-11-11 16:18:39.973465,4063.22580645,0,4082.25806452,0,4172.90322581,0,4093.87096774,0,4093.5483871,0,4090.64516129,0,3768.38709677,0,4088.38709677,0,4114.19354839,0,4082.90322581,0,4341.29032258,0,4117.41935484,0,4808.70967742,0,4075.48387097,0,0,0,?
2017-11-11 16:18:39.973503,4067.74193548,0,4080.0,0,4169.35483871,0,4092.58064516,0,4085.80645161,0,4086.77419355,0,3769.35483871,0,4089.03225806,0,4064.83870968,0,4083.87096774,0,4340.64516129,0,4118.70967742,0,4807.74193548,0,4077.09677419,0,0,0,?
2017-11-11 16:18:39.973524,4070.0,0,4076.12903226,0,4160.64516129,0,4093.5483871,0,4079.35483871,0,4087.09677419,0,3772.90322581,0,4094.83870968,0,4065.80645161,0,4082.25806452,0,4337.41935484,0,4120.64516129,0,4849.35483871,0,4075.80645161,0,0,0,?
2017-11-11 16:18:39.973548,4081.29032258,0,4083.87096774,0,4164.19354839,0,4094.19354839,0,4081.61290323,0,4084.83870968,0,3756.4516129,0,4098.38709677,0,4066.77419355,0,4086.77419355,0,4350.0,0,4126.12903226,0,4848.38709677,0,4082.90322581,0,0,0,?
2017-11-11 16:18:39.973563,4096.4516129,0,4098.70967742,0,4180.32258065,0,4092.25806452,0,4088.70967742,0,4077.41935484,0,3774.83870968,0,4098.06451613,0,4067.41935484,0,4097.41935484,0,4329.03225806,0,4134.51612903,0,4808.06451613,0,4096.77419355,0,0,0,?
2017-11-11 16:18:39.973654,4099.03225806,0,4104.51612903,0,4191.93548387,0,4090.96774194,0,4091.93548387,0,4070.96774194,0,3760.64516129,0,4097.41935484,0,4067.41935484,0,4103.87096774,0,4351.61290323,0,4138.70967742,0,4813.87096774,0,4104.83870968,0,0,0,?
2017-11-11 16:18:39.973707,4090.64516129,0,4097.41935484,0,4193.87096774,0,4092.58064516,0,4091.29032258,0,4067.74193548,0,3775.48387097,0,4099.03225806,0,4066.77419355,0,4101.93548387,0,4353.87096774,0,4136.77419355,0,4807.41935484,0,4102.90322581,0,0,0,?
2017-11-11 16:18:39.973915,4091.93548387,0,4090.32258065,0,4198.38709677,0,4093.87096774,0,4092.58064516,0,4063.5483871,0,3791.29032258,0,4099.03225806,0,4065.48387097,0,4100.64516129,0,4351.29032258,0,4135.48387097,0,4850.0,0,4101.29032258,0,0,0,?
2017-11-11 16:18:39.973958,4107.09677419,0,4090.0,0,4207.09677419,0,4091.93548387,0,4095.80645161,0,4060.0,0,3787.09677419,0,4096.12903226,0,4064.51612903,0,4105.16129032,0,4357.41935484,0,4137.09677419,0,4850.0,0,4103.87096774,0,0,0,?
2017-11-11 16:18:39.974083,4065.16129032,0,4090.0,0,4206.77419355,0,4089.35483871,0,4095.48387097,0,4063.5483871,0,3774.83870968,0,4092.25806452,0,4064.51612903,0,4107.41935484,0,4359.03225806,0,4136.4516129,0,4850.64516129,0,4102.25806452,0,0,0,?
2017-11-11 16:18:39.974098,4105.48387097,0,4087.74193548,0,4192.90322581,0,4090.64516129,0,4090.96774194,0,4074.51612903,0,3770.32258065,0,4090.96774194,0,4065.16129032,0,4101.29032258,0,4345.16129032,0,4130.32258065,0,4845.48387097,0,4093.5483871,0,0,0,?
2017-11-11 16:18:39.974205,4090.64516129,0,4091.93548387,0,4183.87096774,0,4094.83870968,0,4088.38709677,0,4080.96774194,0,3764.19354839,0,4091.61290323,0,4065.48387097,0,4094.19354839,0,4332.58064516,0,4126.12903226,0,4844.83870968,0,4088.70967742,0,0,0,?
2017-11-11 16:18:39.974249,4086.4516129,0,4102.58064516,0,4190.64516129,0,4096.77419355,0,4089.67741935,0,4076.77419355,0,3748.70967742,0,4093.5483871,0,4064.83870968,0,4094.83870968,0,4339.67741935,0,4129.35483871,0,4807.09677419,0,4093.87096774,0,0,0,?
2017-11-11 16:18:39.974287,4086.4516129,0,4105.80645161,0,4200.32258065,0,4095.80645161,0,4089.35483871,0,4070.0,0,3743.22580645,0,4097.09677419,0,4114.19354839,0,4097.74193548,0,4351.29032258,0,4134.83870968,0,4820.32258065,0,4099.67741935,0,0,0,?
2017-11-11 16:18:39.974339,4082.25806452,0,4095.16129032,0,4199.35483871,0,4094.83870968,0,4085.48387097,0,4073.5483871,0,3764.51612903,0,4102.25806452,0,4114.19354839,0,4093.5483871,0,4341.61290323,0,4133.5483871,0,4819.35483871,0,4097.09677419,0,0,0,?
2017-11-11 16:18:39.974407,4081.29032258,0,4083.5483871,0,4194.51612903,0,4094.51612903,0,4083.22580645,0,4085.48387097,0,3790.0,0,4104.19354839,0,4064.83870968,0,4086.12903226,0,4365.16129032,0,4126.77419355,0,4809.67741935,0,4091.93548387,0,0,0,?
2017-11-11 16:18:39.974443,4091.61290323,0,4084.51612903,0,4197.09677419,0,4093.5483871,0,4084.51612903,0,4096.4516129,0,3789.67741935,0,4100.64516129,0,4065.16129032,0,4084.51612903,0,4347.09677419,0,4121.93548387,0,4807.09677419,0,4092.58064516,0,0,0,?
2017-11-11 16:18:39.974481,4099.35483871,0,4092.25806452,0,4198.38709677,0,4093.5483871,0,4083.87096774,0,4102.90322581,0,3773.87096774,0,4096.12903226,0,4064.83870968,0,4087.74193548,0,4343.87096774,0,4121.29032258,0,4811.93548387,0,4093.22580645,0,0,0,?
2017-11-11 16:18:39.974505,4089.03225806,0,4093.22580645,0,4184.51612903,0,4097.41935484,0,4078.38709677,0,4106.77419355,0,3776.4516129,0,4097.41935484,0,4113.5483871,0,4086.4516129,0,4341.93548387,0,4121.29032258,0,4811.29032258,0,4084.83870968,0,0,0,?
